%OpenBCI Raw EEG Data
%
%Sample Rate = 250.0 Hz
%First Column = SampleIndex
%Other Columns = EEG data in microvolts followed by Accel Data (in G) interleaved with Aux Data
0, 18173.89, -7378.69, -39165.08, -41058.66, 0.00, 0.00, 0.00, -60331.60, 0.00, 0.00, 0.00
1, 18172.68, -7383.76, -39144.54, -41053.16, 0.00, 0.00, 0.00, -60280.11, 0.00, -0.03, -0.03
2, 18164.55, -7385.28, -39157.06, -41083.02, 0.00, 0.00, 0.00, -60428.65, -0.03, -0.03, 0.00
3, 18171.43, -7372.34, -39174.85, -41087.24, 0.00, 0.00, 0.00, -60495.20, -0.03, 0.00, -0.03
4, 18189.76, -7356.94, -39166.04, -41061.05, 0.00, 0.00, 0.00, -60355.96, -0.03, -0.03, 0.00
5, 18181.96, -7365.66, -39158.42, -41065.38, 0.00, 0.00, 0.00, -60283.03, -0.03, -0.03, -0.03
6, 18166.13, -7375.34, -39165.86, -41094.39, 0.00, 0.00, 0.00, -60413.84, -0.03, -0.03, -0.03
7, 18161.31, -7373.59, -39182.20, -41107.16, 0.00, 0.00, 0.00, -60513.86, 0.00, 0.00, -0.03
8, 18167.61, -7371.87, -39183.72, -41089.81, 0.00, 0.00, 0.00, -60404.25, -0.03, -0.03, -0.03
9, 18180.19, -7368.05, -39159.88, -41070.34, 0.00, 0.00, 0.00, -60285.80, -0.03, -0.03, -0.03
10, 18174.56, -7374.04, -39156.93, -41085.23, 0.00, 0.00, 0.00, -60385.27, 0.00, -0.03, -0.03
11, 18168.32, -7375.78, -39176.08, -41105.01, 0.00, 0.00, 0.00, -60517.88, 0.00, 0.00, -0.03
12, 18178.34, -7368.21, -39180.42, -41087.11, 0.00, 0.00, 0.00, -60440.48, -0.03, -0.03, 0.00
13, 18182.81, -7370.42, -39172.59, -41069.03, 0.00, 0.00, 0.00, -60307.95, -0.03, -0.03, 0.00
14, 18173.51, -7378.91, -39172.14, -41077.61, 0.00, 0.00, 0.00, -60368.13, 0.00, -0.03, -0.03
15, 18165.20, -7380.17, -39191.75, -41099.45, 0.00, 0.00, 0.00, -60517.61, 0.00, -0.03, -0.03
16, 18167.03, -7380.21, -39203.98, -41095.69, 0.00, 0.00, 0.00, -60481.72, 0.00, -0.03, 0.00
17, 18175.83, -7374.42, -39183.66, -41072.71, 0.00, 0.00, 0.00, -60325.03, -0.03, 0.00, -0.03
18, 18177.62, -7371.49, -39170.89, -41077.52, 0.00, 0.00, 0.00, -60343.81, -0.03, -0.03, -0.03
19, 18168.50, -7372.88, -39187.77, -41095.85, 0.00, 0.00, 0.00, -60502.66, 0.00, -0.03, -0.03
20, 18171.07, -7370.22, -39202.03, -41089.59, 0.00, 0.00, 0.00, -60500.16, 0.00, -0.03, -0.03
21, 18181.65, -7369.01, -39189.87, -41066.81, 0.00, 0.00, 0.00, -60342.04, 0.00, -0.03, -0.03
22, 18177.67, -7373.93, -39173.82, -41072.91, 0.00, 0.00, 0.00, -60322.75, 0.00, -0.03, -0.03
23, 18158.51, -7383.99, -39186.07, -41105.53, 0.00, 0.00, 0.00, -60482.61, -0.03, 0.00, -0.03
24, 18160.43, -7379.56, -39195.88, -41108.90, 0.00, 0.00, 0.00, -60519.83, 0.00, -0.03, -0.03
25, 18172.37, -7379.43, -39190.03, -41092.36, 0.00, 0.00, 0.00, -60378.30, 0.00, -0.03, -0.03
26, 18178.92, -7380.99, -39168.48, -41087.51, 0.00, 0.00, 0.00, -60313.36, 0.00, -0.03, 0.00
27, 18180.71, -7375.43, -39164.25, -41100.41, 0.00, 0.00, 0.00, -60439.72, -0.03, -0.03, 0.00
28, 18172.97, -7379.81, -39196.04, -41117.62, 0.00, 0.00, 0.00, -60524.61, -0.03, -0.03, -0.03
29, 18173.89, -7384.73, -39201.47, -41104.88, 0.00, 0.00, 0.00, -60404.71, -0.03, -0.03, 0.00
30, 18179.39, -7380.55, -39164.37, -41084.79, 0.00, 0.00, 0.00, -60294.57, -0.03, 0.00, 0.00
31, 18173.71, -7381.42, -39158.27, -41097.23, 0.00, 0.00, 0.00, -60404.29, 0.00, 0.00, 0.00
32, 18167.54, -7381.64, -39178.41, -41111.16, 0.00, 0.00, 0.00, -60516.54, -0.03, -0.03, -0.03
33, 18176.33, -7372.12, -39175.43, -41087.47, 0.00, 0.00, 0.00, -60409.41, -0.03, -0.03, 0.00
34, 18179.50, -7371.54, -39156.03, -41075.24, 0.00, 0.00, 0.00, -60280.26, -0.03, -0.03, -0.03
35, 18172.06, -7375.34, -39153.15, -41089.97, 0.00, 0.00, 0.00, -60365.18, 0.00, 0.00, -0.03
36, 18163.47, -7374.98, -39168.35, -41103.47, 0.00, 0.00, 0.00, -60498.21, -0.03, 0.00, -0.03
37, 18161.33, -7380.81, -39185.76, -41098.64, 0.00, 0.00, 0.00, -60440.37, 0.00, -0.03, 0.00
38, 18172.19, -7380.48, -39171.74, -41079.06, 0.00, 0.00, 0.00, -60296.33, -0.03, 0.00, -0.03
39, 18171.61, -7380.03, -39155.58, -41081.50, 0.00, 0.00, 0.00, -60334.84, -0.03, -0.03, -0.03
40, 18170.16, -7378.62, -39171.92, -41101.55, 0.00, 0.00, 0.00, -60485.14, 0.00, -0.03, -0.03
41, 18174.00, -7373.39, -39190.39, -41100.07, 0.00, 0.00, 0.00, -60464.95, 0.00, 0.00, -0.03
42, 18188.42, -7363.49, -39168.66, -41072.71, 0.00, 0.00, 0.00, -60305.25, -0.03, -0.03, -0.03
43, 18187.44, -7366.42, -39151.80, -41077.30, 0.00, 0.00, 0.00, -60306.99, 0.00, 0.00, -0.03
44, 18176.01, -7371.98, -39173.93, -41105.17, 0.00, 0.00, 0.00, -60467.79, -0.03, -0.03, 0.00
45, 18180.73, -7364.94, -39191.50, -41097.91, 0.00, 0.00, 0.00, -60479.37, 0.00, 0.00, 0.00
46, 18184.17, -7368.45, -39180.73, -41078.70, 0.00, 0.00, 0.00, -60326.77, -0.03, 0.00, 0.00
47, 18178.38, -7378.65, -39165.82, -41083.93, 0.00, 0.00, 0.00, -60297.67, 0.00, 0.00, -0.03
48, 18166.51, -7383.25, -39173.98, -41102.93, 0.00, 0.00, 0.00, -60451.05, -0.03, -0.03, 0.00
49, 18176.75, -7371.09, -39181.54, -41093.26, 0.00, 0.00, 0.00, -60493.54, 0.00, -0.03, 0.00
50, 18191.93, -7361.70, -39169.98, -41066.52, 0.00, 0.00, 0.00, -60344.21, -0.03, 0.00, -0.03
51, 18186.03, -7367.63, -39153.37, -41066.10, 0.00, 0.00, 0.00, -60275.86, 0.00, -0.03, 0.00
52, 18181.94, -7368.57, -39152.57, -41084.56, 0.00, 0.00, 0.00, -60407.49, -0.03, 0.00, -0.03
53, 18179.10, -7368.81, -39168.44, -41088.81, 0.00, 0.00, 0.00, -60491.91, -0.03, -0.03, -0.03
54, 18189.13, -7357.66, -39162.18, -41060.42, 0.00, 0.00, 0.00, -60365.53, -0.03, -0.03, -0.03
55, 18189.16, -7358.33, -39139.00, -41048.89, 0.00, 0.00, 0.00, -60255.20, -0.03, -0.03, 0.00
56, 18163.16, -7378.56, -39150.51, -41083.58, 0.00, 0.00, 0.00, -60375.55, -0.03, -0.03, 0.00
57, 18157.21, -7386.40, -39173.96, -41105.10, 0.00, 0.00, 0.00, -60503.09, 0.00, -0.03, 0.00
58, 18164.46, -7383.41, -39180.42, -41093.59, 0.00, 0.00, 0.00, -60418.98, -0.03, -0.03, -0.03
59, 18176.01, -7377.91, -39155.23, -41072.04, 0.00, 0.00, 0.00, -60279.72, -0.03, 0.00, -0.03
60, 18178.56, -7375.11, -39145.26, -41082.04, 0.00, 0.00, 0.00, -60348.68, -0.03, -0.03, -0.03
61, 18171.54, -7376.43, -39169.80, -41104.88, 0.00, 0.00, 0.00, -60494.75, -0.03, 0.00, -0.03
62, 18172.59, -7376.01, -39183.95, -41095.56, 0.00, 0.00, 0.00, -60444.57, 0.00, -0.03, -0.03
63, 18177.40, -7377.35, -39167.77, -41079.58, 0.00, 0.00, 0.00, -60297.76, 0.00, -0.03, -0.03
64, 18169.91, -7379.18, -39158.33, -41087.15, 0.00, 0.00, 0.00, -60329.86, -0.03, 0.00, 0.00
65, 18171.32, -7367.49, -39165.33, -41099.54, 0.00, 0.00, 0.00, -60475.68, -0.03, -0.03, -0.03
66, 18170.31, -7370.62, -39188.15, -41100.32, 0.00, 0.00, 0.00, -60469.09, 0.00, 0.00, 0.00
67, 18172.84, -7376.68, -39189.69, -41088.81, 0.00, 0.00, 0.00, -60326.42, -0.03, -0.03, -0.03
68, 18185.40, -7365.37, -39164.79, -41078.28, 0.00, 0.00, 0.00, -60305.30, -0.03, 0.00, -0.03
69, 18181.80, -7360.25, -39168.21, -41089.16, 0.00, 0.00, 0.00, -60450.67, 0.00, -0.03, -0.03
70, 18174.40, -7365.73, -39189.60, -41096.09, 0.00, 0.00, 0.00, -60481.76, -0.03, -0.03, -0.03
71, 18183.88, -7362.19, -39177.13, -41069.77, 0.00, 0.00, 0.00, -60330.69, -0.03, -0.03, -0.03
72, 18182.38, -7366.06, -39157.28, -41064.80, 0.00, 0.00, 0.00, -60279.61, 0.00, 0.00, -0.03
73, 18179.34, -7366.29, -39162.76, -41080.09, 0.00, 0.00, 0.00, -60418.91, -0.03, 0.00, -0.03
74, 18179.16, -7361.95, -39181.33, -41082.32, 0.00, 0.00, 0.00, -60480.27, 0.00, -0.03, -0.03
75, 18182.32, -7358.31, -39181.24, -41067.15, 0.00, 0.00, 0.00, -60351.83, -0.03, -0.03, -0.03
76, 18179.05, -7362.98, -39165.06, -41067.02, 0.00, 0.00, 0.00, -60269.73, 0.00, -0.03, 0.00
77, 18176.53, -7359.24, -39161.13, -41081.63, 0.00, 0.00, 0.00, -60391.30, 0.00, -0.03, -0.03
78, 18166.02, -7364.85, -39192.93, -41101.82, 0.00, 0.00, 0.00, -60507.11, -0.03, -0.03, -0.03
79, 18176.95, -7359.13, -39194.27, -41081.77, 0.00, 0.00, 0.00, -60398.08, -0.03, -0.03, 0.00
80, 18184.13, -7358.48, -39167.27, -41063.11, 0.00, 0.00, 0.00, -60273.73, 0.00, 0.00, -0.03
81, 18167.41, -7368.57, -39160.90, -41078.37, 0.00, 0.00, 0.00, -60367.07, -0.03, -0.03, -0.03
82, 18161.11, -7369.55, -39180.86, -41091.71, 0.00, 0.00, 0.00, -60498.55, -0.03, -0.03, 0.00
83, 18173.85, -7359.92, -39184.82, -41075.53, 0.00, 0.00, 0.00, -60420.72, 0.00, 0.00, -0.03
84, 18184.06, -7355.51, -39162.07, -41053.83, 0.00, 0.00, 0.00, -60279.66, 0.00, -0.03, 0.00
85, 18171.61, -7367.31, -39157.10, -41071.42, 0.00, 0.00, 0.00, -60341.57, -0.03, -0.03, 0.00
86, 18162.18, -7371.85, -39174.67, -41095.58, 0.00, 0.00, 0.00, -60490.32, 0.00, -0.03, -0.03
87, 18174.09, -7366.98, -39181.76, -41087.49, 0.00, 0.00, 0.00, -60450.47, -0.03, 0.00, 0.00
88, 18187.66, -7359.87, -39159.14, -41059.53, 0.00, 0.00, 0.00, -60292.96, -0.03, -0.03, 0.00
89, 18171.83, -7376.97, -39156.79, -41078.73, 0.00, 0.00, 0.00, -60320.45, -0.03, 0.00, -0.03
90, 18164.37, -7379.67, -39168.35, -41101.55, 0.00, 0.00, 0.00, -60474.95, -0.03, -0.03, 0.00
91, 18167.63, -7375.09, -39180.26, -41099.96, 0.00, 0.00, 0.00, -60476.71, -0.03, -0.03, -0.03
92, 18180.15, -7370.02, -39163.74, -41077.61, 0.00, 0.00, 0.00, -60320.83, -0.03, 0.00, 0.00
93, 18181.38, -7372.70, -39144.96, -41074.10, 0.00, 0.00, 0.00, -60293.58, -0.03, -0.03, 0.00
94, 18168.01, -7380.57, -39158.71, -41093.66, 0.00, 0.00, 0.00, -60446.91, 0.00, -0.03, -0.03
95, 18169.38, -7374.78, -39173.82, -41089.28, 0.00, 0.00, 0.00, -60485.52, 0.00, -0.03, -0.03
96, 18175.07, -7374.29, -39165.42, -41065.74, 0.00, 0.00, 0.00, -60337.88, 0.00, -0.03, -0.03
97, 18188.55, -7365.12, -39139.96, -41048.60, 0.00, 0.00, 0.00, -60267.10, -0.03, 0.00, -0.03
98, 18171.92, -7375.72, -39152.34, -41075.17, 0.00, 0.00, 0.00, -60413.05, -0.03, 0.00, -0.03
99, 18159.96, -7384.26, -39179.23, -41089.39, 0.00, 0.00, 0.00, -60504.76, 0.00, 0.00, -0.03
100, 18174.16, -7380.61, -39169.33, -41064.33, 0.00, 0.00, 0.00, -60369.58, -0.03, 0.00, -0.03
101, 18173.33, -7385.62, -39153.08, -41057.96, 0.00, 0.00, 0.00, -60272.08, 0.00, 0.00, -0.03
102, 18174.61, -7377.80, -39147.22, -41070.99, 0.00, 0.00, 0.00, -60382.52, -0.03, 0.00, -0.03
103, 18175.19, -7372.30, -39162.11, -41083.71, 0.00, 0.00, 0.00, -60491.46, -0.03, -0.03, 0.00
104, 18181.04, -7367.63, -39164.77, -41067.15, 0.00, 0.00, 0.00, -60394.55, -0.03, 0.00, -0.03
105, 18182.45, -7371.47, -39145.52, -41053.00, 0.00, 0.00, 0.00, -60269.96, -0.03, -0.03, 0.00
106, 18178.52, -7376.34, -39139.36, -41070.75, 0.00, 0.00, 0.00, -60352.41, -0.03, -0.03, -0.03
107, 18175.68, -7371.58, -39158.60, -41088.70, 0.00, 0.00, 0.00, -60492.36, -0.03, 0.00, -0.03
108, 18173.73, -7377.86, -39178.11, -41087.11, 0.00, 0.00, 0.00, -60441.30, 0.00, -0.03, -0.03
109, 18178.76, -7380.12, -39161.17, -41067.33, 0.00, 0.00, 0.00, -60296.45, 0.00, 0.00, -0.03
110, 18170.40, -7385.17, -39151.52, -41076.56, 0.00, 0.00, 0.00, -60342.42, 0.00, -0.03, 0.00
111, 18171.10, -7379.43, -39157.89, -41089.86, 0.00, 0.00, 0.00, -60483.24, 0.00, -0.03, 0.00
112, 18170.43, -7382.20, -39175.52, -41088.76, 0.00, 0.00, 0.00, -60461.29, -0.03, 0.00, 0.00
113, 18181.89, -7374.04, -39161.73, -41061.52, 0.00, 0.00, 0.00, -60302.01, -0.03, 0.00, 0.00
114, 18183.86, -7373.97, -39144.05, -41061.96, 0.00, 0.00, 0.00, -60301.59, 0.00, -0.03, -0.03
115, 18173.51, -7375.27, -39156.61, -41086.06, 0.00, 0.00, 0.00, -60460.71, 0.00, 0.00, -0.03
116, 18166.07, -7380.46, -39175.27, -41091.36, 0.00, 0.00, 0.00, -60484.11, 0.00, -0.03, -0.03
117, 18179.72, -7377.01, -39161.06, -41066.97, 0.00, 0.00, 0.00, -60327.80, 0.00, 0.00, 0.00
118, 18178.52, -7378.44, -39138.55, -41059.10, 0.00, 0.00, 0.00, -60284.15, 0.00, -0.03, 0.00
119, 18170.87, -7385.02, -39153.37, -41085.81, 0.00, 0.00, 0.00, -60439.74, -0.03, -0.03, 0.00
120, 18176.86, -7376.32, -39168.04, -41084.27, 0.00, 0.00, 0.00, -60495.04, 0.00, -0.03, 0.00
121, 18182.76, -7372.81, -39164.30, -41065.09, 0.00, 0.00, 0.00, -60359.18, 0.00, -0.03, 0.00
122, 18176.62, -7381.60, -39152.88, -41063.98, 0.00, 0.00, 0.00, -60288.55, -0.03, -0.03, 0.00
123, 18171.74, -7383.00, -39153.57, -41079.51, 0.00, 0.00, 0.00, -60413.50, 0.00, -0.03, -0.03
124, 18168.28, -7384.66, -39177.91, -41091.76, 0.00, 0.00, 0.00, -60511.27, -0.03, 0.00, -0.03
125, 18182.09, -7376.28, -39179.01, -41067.55, 0.00, 0.00, 0.00, -60393.65, 0.00, -0.03, -0.03
126, 18188.57, -7373.26, -39157.50, -41047.91, 0.00, 0.00, 0.00, -60276.55, -0.03, -0.03, 0.00
127, 18161.75, -7395.77, -39169.22, -41076.54, 0.00, 0.00, 0.00, -60391.19, 0.00, -0.03, -0.03
128, 18152.39, -7399.63, -39196.64, -41098.57, 0.00, 0.00, 0.00, -60523.07, -0.03, 0.00, 0.00
129, 18161.60, -7391.12, -39199.64, -41083.18, 0.00, 0.00, 0.00, -60435.76, -0.03, -0.03, 0.00
130, 18166.85, -7389.02, -39180.39, -41069.70, 0.00, 0.00, 0.00, -60302.37, 0.00, 0.00, -0.03
131, 18166.18, -7387.14, -39166.96, -41079.46, 0.00, 0.00, 0.00, -60366.88, -0.03, -0.03, 0.00
132, 18167.77, -7379.12, -39172.91, -41087.22, 0.00, 0.00, 0.00, -60500.43, 0.00, 0.00, -0.03
133, 18173.51, -7373.19, -39180.80, -41074.39, 0.00, 0.00, 0.00, -60448.10, -0.03, -0.03, -0.03
134, 18180.44, -7372.28, -39168.14, -41056.49, 0.00, 0.00, 0.00, -60301.11, 0.00, -0.03, 0.00
135, 18171.59, -7381.33, -39160.66, -41069.54, 0.00, 0.00, 0.00, -60334.26, 0.00, 0.00, 0.00
136, 18165.49, -7380.28, -39169.44, -41088.76, 0.00, 0.00, 0.00, -60485.54, -0.03, 0.00, 0.00
137, 18157.97, -7388.19, -39192.98, -41095.40, 0.00, 0.00, 0.00, -60485.65, -0.03, 0.00, -0.03
138, 18173.17, -7381.98, -39173.35, -41069.21, 0.00, 0.00, 0.00, -60324.81, 0.00, -0.03, -0.03
139, 18174.83, -7381.26, -39152.63, -41067.95, 0.00, 0.00, 0.00, -60310.48, -0.03, -0.03, -0.03
140, 18173.55, -7378.42, -39158.89, -41085.66, 0.00, 0.00, 0.00, -60459.66, 0.00, -0.03, -0.03
141, 18173.91, -7380.17, -39178.29, -41084.25, 0.00, 0.00, 0.00, -60489.23, 0.00, -0.03, -0.03
142, 18181.42, -7376.66, -39164.86, -41052.98, 0.00, 0.00, 0.00, -60335.07, -0.03, -0.03, -0.03
143, 18178.27, -7382.65, -39144.50, -41050.07, 0.00, 0.00, 0.00, -60282.92, -0.03, -0.03, -0.03
144, 18153.10, -7399.84, -39163.94, -41081.07, 0.00, 0.00, 0.00, -60440.16, -0.03, 0.00, -0.03
145, 18148.83, -7398.65, -39184.26, -41080.31, 0.00, 0.00, 0.00, -60507.22, -0.03, -0.03, -0.03
146, 18163.92, -7389.58, -39178.05, -41053.27, 0.00, 0.00, 0.00, -60364.37, -0.03, -0.03, 0.00
147, 18169.35, -7392.77, -39156.43, -41041.24, 0.00, 0.00, 0.00, -60270.80, -0.03, -0.03, -0.03
148, 18161.62, -7398.11, -39156.50, -41063.08, 0.00, 0.00, 0.00, -60396.67, -0.03, 0.00, -0.03
149, 18151.85, -7402.56, -39181.24, -41080.52, 0.00, 0.00, 0.00, -60507.49, 0.00, 0.00, -0.03
150, 18155.58, -7404.69, -39184.98, -41069.03, 0.00, 0.00, 0.00, -60403.33, -0.03, -0.03, -0.03
151, 18161.60, -7406.85, -39164.32, -41056.71, 0.00, 0.00, 0.00, -60284.42, 0.00, 0.00, -0.03
152, 18161.31, -7403.64, -39159.56, -41070.79, 0.00, 0.00, 0.00, -60373.00, -0.03, -0.03, -0.03
153, 18150.02, -7404.26, -39181.46, -41087.27, 0.00, 0.00, 0.00, -60505.48, -0.03, -0.03, -0.03
154, 18150.46, -7405.36, -39186.54, -41073.59, 0.00, 0.00, 0.00, -60431.96, 0.00, 0.00, -0.03
155, 18154.71, -7406.83, -39166.11, -41056.96, 0.00, 0.00, 0.00, -60289.47, 0.00, -0.03, -0.03
156, 18145.55, -7414.12, -39161.86, -41077.86, 0.00, 0.00, 0.00, -60351.96, -0.03, -0.03, -0.03
157, 18147.80, -7406.94, -39172.04, -41097.77, 0.00, 0.00, 0.00, -60497.27, -0.03, 0.00, -0.03
158, 18144.99, -7409.63, -39189.00, -41097.88, 0.00, 0.00, 0.00, -60464.73, -0.03, -0.03, -0.03
159, 18153.48, -7404.33, -39176.19, -41074.37, 0.00, 0.00, 0.00, -60315.46, -0.03, -0.03, 0.00
160, 18155.18, -7399.61, -39160.66, -41077.66, 0.00, 0.00, 0.00, -60329.68, -0.03, -0.03, -0.03
161, 18163.05, -7387.83, -39164.10, -41090.71, 0.00, 0.00, 0.00, -60475.04, -0.03, -0.03, -0.03
162, 18161.26, -7387.61, -39179.12, -41086.84, 0.00, 0.00, 0.00, -60477.22, 0.00, -0.03, -0.03
163, 18163.32, -7392.33, -39172.95, -41067.24, 0.00, 0.00, 0.00, -60328.18, 0.00, -0.03, -0.03
164, 18169.82, -7386.27, -39151.47, -41060.20, 0.00, 0.00, 0.00, -60293.29, -0.03, -0.03, -0.03
165, 18162.80, -7384.61, -39161.04, -41081.99, 0.00, 0.00, 0.00, -60442.94, 0.00, -0.03, 0.00
166, 18168.59, -7376.57, -39176.95, -41082.15, 0.00, 0.00, 0.00, -60486.81, -0.03, -0.03, -0.03
167, 18175.34, -7373.57, -39172.68, -41060.93, 0.00, 0.00, 0.00, -60346.58, -0.03, -0.03, -0.03
168, 18169.87, -7382.83, -39155.88, -41057.34, 0.00, 0.00, 0.00, -60286.32, 0.00, -0.03, -0.03
169, 18154.33, -7393.00, -39163.00, -41079.84, 0.00, 0.00, 0.00, -60424.14, 0.00, 0.00, -0.03
170, 18153.71, -7388.48, -39177.40, -41077.18, 0.00, 0.00, 0.00, -60499.24, -0.03, -0.03, 0.00
171, 18159.29, -7388.17, -39176.17, -41054.77, 0.00, 0.00, 0.00, -60377.94, -0.03, -0.03, 0.00
172, 18165.53, -7387.65, -39153.01, -41040.30, 0.00, 0.00, 0.00, -60272.80, 0.00, -0.03, -0.03
173, 18151.74, -7398.43, -39152.25, -41058.25, 0.00, 0.00, 0.00, -60383.32, 0.00, 0.00, 0.00
174, 18154.24, -7391.72, -39169.17, -41065.79, 0.00, 0.00, 0.00, -60493.79, -0.03, -0.03, -0.03
175, 18158.06, -7388.77, -39178.38, -41055.66, 0.00, 0.00, 0.00, -60403.57, -0.03, 0.00, -0.03
176, 18151.98, -7403.32, -39174.89, -41059.35, 0.00, 0.00, 0.00, -60292.44, 0.00, -0.03, -0.03
177, 18139.11, -7414.43, -39178.11, -41081.79, 0.00, 0.00, 0.00, -60383.41, -0.03, -0.03, 0.00
178, 18139.45, -7409.94, -39194.88, -41101.35, 0.00, 0.00, 0.00, -60523.11, -0.03, -0.03, -0.03
179, 18151.31, -7401.27, -39203.53, -41093.70, 0.00, 0.00, 0.00, -60462.11, 0.00, -0.03, 0.00
180, 18160.52, -7397.67, -39182.81, -41075.84, 0.00, 0.00, 0.00, -60313.90, -0.03, 0.00, -0.03
181, 18154.18, -7401.60, -39171.74, -41087.02, 0.00, 0.00, 0.00, -60358.85, -0.03, -0.03, 0.00
182, 18144.68, -7404.73, -39185.80, -41111.83, 0.00, 0.00, 0.00, -60511.91, -0.03, -0.03, 0.00
183, 18159.81, -7391.65, -39190.63, -41101.62, 0.00, 0.00, 0.00, -60482.61, 0.00, -0.03, 0.00
184, 18163.56, -7393.73, -39180.66, -41082.55, 0.00, 0.00, 0.00, -60332.30, 0.00, -0.03, -0.03
185, 18157.62, -7398.78, -39168.59, -41086.46, 0.00, 0.00, 0.00, -60334.40, -0.03, -0.03, -0.03
186, 18145.84, -7405.58, -39180.08, -41107.83, 0.00, 0.00, 0.00, -60485.07, -0.03, 0.00, 0.00
187, 18149.48, -7400.46, -39194.52, -41102.04, 0.00, 0.00, 0.00, -60500.18, 0.00, -0.03, -0.03
188, 18163.61, -7388.37, -39175.48, -41064.45, 0.00, 0.00, 0.00, -60340.03, 0.00, 0.00, -0.03
189, 18165.17, -7387.94, -39156.28, -41055.73, 0.00, 0.00, 0.00, -60297.56, 0.00, -0.03, -0.03
190, 18163.88, -7383.09, -39159.43, -41068.67, 0.00, 0.00, 0.00, -60438.69, 0.00, 0.00, -0.03
191, 18135.91, -7409.87, -39201.00, -41097.64, 0.00, 0.00, 0.00, -60519.34, 0.00, -0.03, -0.03
192, 18154.96, -7396.44, -39185.07, -41066.64, 0.00, 0.00, 0.00, -60371.70, 0.00, -0.03, 0.00
193, 18165.89, -7391.41, -39160.19, -41052.53, 0.00, 0.00, 0.00, -60289.74, -0.03, -0.03, -0.03
194, 18149.21, -7403.64, -39170.07, -41083.87, 0.00, 0.00, 0.00, -60427.40, 0.00, 0.00, -0.03
195, 18142.64, -7405.56, -39195.88, -41100.41, 0.00, 0.00, 0.00, -60524.41, -0.03, 0.00, -0.03
196, 18149.41, -7402.07, -39197.71, -41078.66, 0.00, 0.00, 0.00, -60408.96, 0.00, -0.03, -0.03
197, 18158.56, -7397.42, -39166.63, -41056.96, 0.00, 0.00, 0.00, -60291.17, 0.00, -0.03, -0.03
198, 18147.89, -7403.77, -39165.33, -41078.19, 0.00, 0.00, 0.00, -60395.73, -0.03, 0.00, 0.00
199, 18132.49, -7416.00, -39199.50, -41109.77, 0.00, 0.00, 0.00, -60532.93, -0.03, -0.03, -0.03
200, 18142.75, -7409.20, -39200.58, -41089.81, 0.00, 0.00, 0.00, -60445.44, -0.03, 0.00, 0.00
201, 18150.58, -7404.66, -39173.87, -41064.13, 0.00, 0.00, 0.00, -60301.94, -0.03, 0.00, 0.00
202, 18138.73, -7413.18, -39176.10, -41081.90, 0.00, 0.00, 0.00, -60375.55, 0.00, -0.03, -0.03
203, 18135.96, -7413.58, -39194.77, -41102.20, 0.00, 0.00, 0.00, -60520.07, -0.03, -0.03, -0.03
204, 18142.24, -7406.90, -39198.75, -41092.61, 0.00, 0.00, 0.00, -60468.86, -0.03, -0.03, -0.03
205, 18154.91, -7399.39, -39177.11, -41069.21, 0.00, 0.00, 0.00, -60316.00, 0.00, -0.03, -0.03
206, 18141.28, -7412.67, -39173.04, -41082.80, 0.00, 0.00, 0.00, -60351.29, -0.03, -0.03, -0.03
207, 18139.02, -7408.46, -39184.08, -41095.83, 0.00, 0.00, 0.00, -60500.89, 0.00, -0.03, -0.03
208, 18138.69, -7410.36, -39203.33, -41097.88, 0.00, 0.00, 0.00, -60495.15, -0.03, 0.00, -0.03
209, 18148.81, -7402.25, -39194.48, -41079.06, 0.00, 0.00, 0.00, -60341.64, -0.03, -0.03, 0.00
210, 18150.49, -7402.58, -39178.45, -41074.17, 0.00, 0.00, 0.00, -60319.96, 0.00, -0.03, -0.03
211, 18145.84, -7402.14, -39186.59, -41089.46, 0.00, 0.00, 0.00, -60471.95, 0.00, -0.03, -0.03
212, 18149.73, -7396.01, -39199.15, -41086.91, 0.00, 0.00, 0.00, -60498.17, 0.00, 0.00, 0.00
213, 18164.73, -7386.11, -39184.64, -41059.46, 0.00, 0.00, 0.00, -60344.48, -0.03, -0.03, 0.00
214, 18164.50, -7389.02, -39165.73, -41055.95, 0.00, 0.00, 0.00, -60292.35, -0.03, 0.00, -0.03
215, 18149.93, -7395.81, -39173.69, -41080.71, 0.00, 0.00, 0.00, -60434.15, -0.03, -0.03, -0.03
216, 18142.44, -7404.71, -39201.29, -41099.92, 0.00, 0.00, 0.00, -60513.19, -0.03, -0.03, 0.00
217, 18159.58, -7395.12, -39192.53, -41080.09, 0.00, 0.00, 0.00, -60380.20, -0.03, -0.03, -0.03
218, 18159.81, -7399.43, -39176.84, -41077.16, 0.00, 0.00, 0.00, -60295.66, 0.00, -0.03, -0.03
219, 18146.80, -7410.77, -39182.79, -41103.43, 0.00, 0.00, 0.00, -60425.10, -0.03, -0.03, -0.03
220, 18140.47, -7415.75, -39198.14, -41113.02, 0.00, 0.00, 0.00, -60527.61, 0.00, 0.00, -0.03
221, 18148.34, -7414.56, -39197.00, -41096.05, 0.00, 0.00, 0.00, -60420.12, 0.00, -0.03, -0.03
222, 18155.09, -7409.65, -39171.99, -41074.95, 0.00, 0.00, 0.00, -60297.05, -0.03, -0.03, 0.00
223, 18150.38, -7414.01, -39168.88, -41084.32, 0.00, 0.00, 0.00, -60388.58, -0.03, -0.03, -0.03
224, 18154.62, -7405.47, -39184.80, -41096.34, 0.00, 0.00, 0.00, -60516.18, 0.00, -0.03, -0.03
225, 18156.05, -7403.28, -39198.77, -41087.00, 0.00, 0.00, 0.00, -60447.65, -0.03, -0.03, -0.03
226, 18162.76, -7401.94, -39178.41, -41069.00, 0.00, 0.00, 0.00, -60300.60, 0.00, -0.03, -0.03
227, 18150.02, -7411.41, -39175.95, -41086.19, 0.00, 0.00, 0.00, -60365.27, 0.00, 0.00, -0.03
228, 18149.19, -7406.18, -39192.02, -41102.44, 0.00, 0.00, 0.00, -60514.33, 0.00, -0.03, -0.03
229, 18158.54, -7398.07, -39199.48, -41084.76, 0.00, 0.00, 0.00, -60471.97, -0.03, -0.03, 0.00
230, 18170.69, -7389.84, -39175.81, -41054.01, 0.00, 0.00, 0.00, -60308.02, -0.03, 0.00, -0.03
231, 18165.66, -7394.49, -39162.67, -41062.52, 0.00, 0.00, 0.00, -60323.00, -0.03, 0.00, -0.03
232, 18154.44, -7397.89, -39177.69, -41085.68, 0.00, 0.00, 0.00, -60484.54, 0.00, -0.03, -0.03
233, 18162.60, -7390.85, -39186.88, -41076.16, 0.00, 0.00, 0.00, -60483.50, 0.00, 0.00, -0.03
234, 18160.37, -7399.97, -39185.27, -41061.79, 0.00, 0.00, 0.00, -60331.40, 0.00, -0.03, -0.03
235, 18157.19, -7404.06, -39170.13, -41061.18, 0.00, 0.00, 0.00, -60300.45, -0.03, 0.00, 0.00
236, 18151.67, -7404.15, -39181.00, -41081.52, 0.00, 0.00, 0.00, -60457.60, 0.00, -0.03, 0.00
237, 18156.01, -7396.62, -39196.49, -41086.06, 0.00, 0.00, 0.00, -60506.21, 0.00, -0.03, 0.00
238, 18164.57, -7392.39, -39185.89, -41065.68, 0.00, 0.00, 0.00, -60357.29, -0.03, -0.03, -0.03
239, 18166.67, -7394.60, -39163.94, -41062.90, 0.00, 0.00, 0.00, -60290.59, -0.03, 0.00, -0.03
240, 18158.47, -7401.49, -39168.39, -41086.21, 0.00, 0.00, 0.00, -60434.24, -0.03, -0.03, -0.03
241, 18156.70, -7399.03, -39190.54, -41096.90, 0.00, 0.00, 0.00, -60526.69, 0.00, -0.03, -0.03
242, 18169.60, -7392.62, -39187.99, -41080.02, 0.00, 0.00, 0.00, -60398.97, 0.00, -0.03, 0.00
243, 18181.65, -7387.23, -39159.56, -41065.36, 0.00, 0.00, 0.00, -60282.43, 0.00, -0.03, 0.00
244, 18145.97, -7418.61, -39187.43, -41113.17, 0.00, 0.00, 0.00, -60426.89, -0.03, 0.00, -0.03
245, 18142.55, -7416.06, -39203.48, -41127.01, 0.00, 0.00, 0.00, -60547.10, -0.03, 0.00, 0.00
246, 18153.73, -7408.69, -39199.23, -41101.55, 0.00, 0.00, 0.00, -60443.07, -0.03, -0.03, -0.03
247, 18159.47, -7409.13, -39169.98, -41071.42, 0.00, 0.00, 0.00, -60298.21, 0.00, -0.03, 0.00
248, 18158.18, -7405.04, -39160.46, -41077.72, 0.00, 0.00, 0.00, -60372.48, -0.03, 0.00, -0.03
249, 18159.52, -7401.89, -39183.25, -41095.29, 0.00, 0.00, 0.00, -60518.38, -0.03, -0.03, 0.00
250, 18168.53, -7393.20, -39186.72, -41076.09, 0.00, 0.00, 0.00, -60449.11, -0.03, -0.03, -0.03
251, 18181.56, -7385.87, -39160.34, -41050.79, 0.00, 0.00, 0.00, -60289.61, -0.03, -0.03, 0.00
252, 18170.00, -7396.97, -39160.23, -41072.25, 0.00, 0.00, 0.00, -60342.20, -0.03, -0.03, -0.03
253, 18158.82, -7398.20, -39179.66, -41097.59, 0.00, 0.00, 0.00, -60502.39, 0.00, -0.03, -0.03
254, 18163.96, -7393.13, -39191.73, -41088.92, 0.00, 0.00, 0.00, -60476.20, -0.03, -0.03, -0.03
255, 18170.65, -7392.77, -39175.59, -41062.54, 0.00, 0.00, 0.00, -60311.02, -0.03, 0.00, -0.03
0, 18167.81, -7395.43, -39158.20, -41062.52, 0.00, 0.00, 0.00, -60306.55, -0.03, 0.00, -0.03
1, 18159.96, -7396.77, -39169.22, -41081.66, 0.00, 0.00, 0.00, -60465.73, -0.03, 0.00, 0.00
2, 18161.46, -7394.90, -39182.36, -41080.54, 0.00, 0.00, 0.00, -60483.77, -0.03, -0.03, 0.00
3, 18167.52, -7393.42, -39170.89, -41060.76, 0.00, 0.00, 0.00, -60328.52, -0.03, 0.00, -0.03
4, 18168.68, -7394.65, -39154.24, -41059.19, 0.00, 0.00, 0.00, -60288.11, -0.03, 0.00, -0.03
5, 18162.22, -7393.58, -39161.91, -41079.93, 0.00, 0.00, 0.00, -60439.45, -0.03, -0.03, -0.03
6, 18148.32, -7402.61, -39193.49, -41095.51, 0.00, 0.00, 0.00, -60511.85, -0.03, 0.00, 0.00
7, 18156.86, -7401.04, -39187.97, -41073.96, 0.00, 0.00, 0.00, -60368.91, 0.00, 0.00, 0.00
8, 18162.69, -7399.46, -39164.41, -41064.76, 0.00, 0.00, 0.00, -60281.89, -0.03, -0.03, -0.03
9, 18142.78, -7414.54, -39179.19, -41094.78, 0.00, 0.00, 0.00, -60427.18, -0.03, 0.00, -0.03
10, 18148.63, -7408.13, -39194.81, -41103.09, 0.00, 0.00, 0.00, -60523.38, -0.03, 0.00, -0.03
11, 18164.68, -7395.70, -39191.93, -41081.05, 0.00, 0.00, 0.00, -60407.18, -0.03, 0.00, -0.03
12, 18171.19, -7391.65, -39168.55, -41062.14, 0.00, 0.00, 0.00, -60289.02, -0.03, -0.03, 0.00
13, 18161.15, -7397.65, -39170.09, -41078.77, 0.00, 0.00, 0.00, -60394.34, -0.03, -0.03, -0.03
14, 18157.35, -7396.97, -39188.66, -41093.43, 0.00, 0.00, 0.00, -60521.68, -0.03, -0.03, -0.03
15, 18169.84, -7388.84, -39187.77, -41074.04, 0.00, 0.00, 0.00, -60429.66, -0.03, -0.03, -0.03
16, 18163.43, -7399.68, -39175.36, -41069.00, 0.00, 0.00, 0.00, -60298.34, -0.03, 0.00, 0.00
17, 18163.81, -7398.78, -39161.37, -41079.67, 0.00, 0.00, 0.00, -60365.76, 0.00, -0.03, -0.03
18, 18150.35, -7405.71, -39181.15, -41102.80, 0.00, 0.00, 0.00, -60516.41, 0.00, 0.00, -0.03
19, 18160.68, -7395.95, -39183.01, -41085.77, 0.00, 0.00, 0.00, -60458.76, -0.03, -0.03, 0.00
20, 18178.09, -7389.06, -39158.06, -41059.35, 0.00, 0.00, 0.00, -60293.07, -0.03, -0.03, 0.00
21, 18171.48, -7394.20, -39149.75, -41070.55, 0.00, 0.00, 0.00, -60325.16, 0.00, -0.03, -0.03
22, 18161.98, -7396.37, -39167.32, -41094.55, 0.00, 0.00, 0.00, -60490.66, -0.03, -0.03, -0.03
23, 18163.54, -7396.57, -39184.08, -41091.20, 0.00, 0.00, 0.00, -60485.96, -0.03, 0.00, -0.03
24, 18171.97, -7395.23, -39167.95, -41064.09, 0.00, 0.00, 0.00, -60318.21, -0.03, 0.00, -0.03
25, 18169.71, -7397.60, -39150.96, -41061.52, 0.00, 0.00, 0.00, -60296.42, -0.03, 0.00, 0.00
26, 18159.76, -7398.45, -39165.29, -41080.65, 0.00, 0.00, 0.00, -60455.99, -0.03, -0.03, -0.03
27, 18156.97, -7404.93, -39190.14, -41084.58, 0.00, 0.00, 0.00, -60496.69, -0.03, -0.03, 0.00
28, 18162.31, -7407.23, -39186.16, -41066.86, 0.00, 0.00, 0.00, -60347.90, 0.00, -0.03, 0.00
29, 18162.27, -7410.81, -39166.83, -41063.71, 0.00, 0.00, 0.00, -60291.77, 0.00, -0.03, 0.00
30, 18152.10, -7413.72, -39170.63, -41081.05, 0.00, 0.00, 0.00, -60438.00, -0.03, -0.03, 0.00
31, 18152.39, -7405.24, -39184.39, -41084.45, 0.00, 0.00, 0.00, -60509.14, -0.03, -0.03, -0.03
32, 18164.90, -7395.28, -39176.13, -41059.64, 0.00, 0.00, 0.00, -60370.18, -0.03, -0.03, 0.00
33, 18172.01, -7390.98, -39152.39, -41046.54, 0.00, 0.00, 0.00, -60269.78, -0.03, -0.03, 0.00
34, 18163.18, -7395.34, -39151.89, -41066.61, 0.00, 0.00, 0.00, -60393.38, -0.03, -0.03, -0.03
35, 18161.11, -7393.04, -39172.23, -41079.80, 0.00, 0.00, 0.00, -60505.90, -0.03, -0.03, -0.03
36, 18167.65, -7386.96, -39175.88, -41061.88, 0.00, 0.00, 0.00, -60399.91, -0.03, -0.03, -0.03
37, 18171.45, -7388.53, -39151.87, -41045.45, 0.00, 0.00, 0.00, -60269.38, 0.00, -0.03, -0.03
38, 18161.24, -7397.29, -39147.76, -41065.56, 0.00, 0.00, 0.00, -60363.72, 0.00, -0.03, -0.03
39, 18162.80, -7389.42, -39164.59, -41079.00, 0.00, 0.00, 0.00, -60498.84, -0.03, 0.00, 0.00
40, 18165.78, -7384.68, -39173.40, -41066.68, 0.00, 0.00, 0.00, -60427.29, -0.03, -0.03, -0.03
41, 18180.97, -7375.83, -39146.08, -41041.04, 0.00, 0.00, 0.00, -60271.05, -0.03, -0.03, 0.00
42, 18171.28, -7384.70, -39141.79, -41055.95, 0.00, 0.00, 0.00, -60328.12, -0.03, -0.03, 0.00
43, 18161.98, -7387.68, -39163.83, -41074.44, 0.00, 0.00, 0.00, -60487.91, 0.00, 0.00, -0.03
44, 18159.70, -7390.81, -39179.59, -41073.30, 0.00, 0.00, 0.00, -60457.42, 0.00, -0.03, -0.03
45, 18179.25, -7384.17, -39153.30, -41049.96, 0.00, 0.00, 0.00, -60290.92, 0.00, -0.03, -0.03
46, 18174.18, -7392.68, -39146.98, -41063.93, 0.00, 0.00, 0.00, -60309.05, -0.03, -0.03, 0.00
47, 18164.73, -7395.16, -39166.49, -41087.63, 0.00, 0.00, 0.00, -60474.12, -0.03, -0.03, 0.00
48, 18167.30, -7391.50, -39180.08, -41080.00, 0.00, 0.00, 0.00, -60479.28, 0.00, 0.00, 0.00
49, 18175.99, -7388.28, -39163.59, -41053.25, 0.00, 0.00, 0.00, -60315.31, -0.03, 0.00, -0.03
50, 18179.59, -7386.49, -39139.45, -41046.79, 0.00, 0.00, 0.00, -60279.01, 0.00, -0.03, 0.00
51, 18169.71, -7391.81, -39151.36, -41070.64, 0.00, 0.00, 0.00, -60437.30, -0.03, -0.03, -0.03
52, 18152.95, -7405.96, -39186.16, -41089.05, 0.00, 0.00, 0.00, -60502.06, -0.03, -0.03, -0.03
53, 18165.69, -7401.42, -39177.87, -41066.59, 0.00, 0.00, 0.00, -60353.38, -0.03, -0.03, 0.00
54, 18176.84, -7395.77, -39154.71, -41049.29, 0.00, 0.00, 0.00, -60278.07, 0.00, -0.03, 0.00
55, 18164.61, -7398.63, -39162.98, -41070.66, 0.00, 0.00, 0.00, -60421.46, 0.00, -0.03, -0.03
56, 18163.00, -7392.53, -39183.81, -41078.19, 0.00, 0.00, 0.00, -60509.05, -0.03, 0.00, 0.00
57, 18165.29, -7392.64, -39189.94, -41062.48, 0.00, 0.00, 0.00, -60387.48, 0.00, -0.03, 0.00
58, 18178.36, -7383.81, -39160.97, -41044.17, 0.00, 0.00, 0.00, -60275.37, -0.03, -0.03, -0.03
59, 18159.03, -7400.51, -39172.77, -41074.39, 0.00, 0.00, 0.00, -60404.89, -0.03, -0.03, 0.00
60, 18150.78, -7404.82, -39200.76, -41092.88, 0.00, 0.00, 0.00, -60532.86, -0.03, -0.03, 0.00
61, 18169.84, -7390.25, -39193.02, -41067.98, 0.00, 0.00, 0.00, -60425.64, -0.03, -0.03, -0.03
62, 18175.25, -7389.91, -39170.20, -41052.13, 0.00, 0.00, 0.00, -60290.10, -0.03, 0.00, -0.03
63, 18168.23, -7396.19, -39164.30, -41070.52, 0.00, 0.00, 0.00, -60371.16, -0.03, 0.00, -0.03
64, 18161.89, -7399.52, -39181.78, -41089.37, 0.00, 0.00, 0.00, -60514.15, 0.00, -0.03, -0.03
65, 18171.70, -7392.75, -39185.18, -41076.78, 0.00, 0.00, 0.00, -60448.35, 0.00, -0.03, 0.00
66, 18186.61, -7383.38, -39154.31, -41050.41, 0.00, 0.00, 0.00, -60287.50, -0.03, -0.03, 0.00
67, 18175.74, -7393.87, -39147.05, -41068.38, 0.00, 0.00, 0.00, -60330.62, 0.00, 0.00, -0.03
68, 18169.02, -7393.53, -39165.75, -41088.47, 0.00, 0.00, 0.00, -60488.36, -0.03, 0.00, -0.03
69, 18170.92, -7389.46, -39182.67, -41083.33, 0.00, 0.00, 0.00, -60469.00, 0.00, -0.03, 0.00
70, 18171.39, -7392.41, -39176.28, -41066.99, 0.00, 0.00, 0.00, -60316.80, -0.03, -0.03, -0.03
71, 18175.86, -7388.79, -39150.09, -41056.18, 0.00, 0.00, 0.00, -60307.62, 0.00, -0.03, -0.03
72, 18165.66, -7393.17, -39158.22, -41072.43, 0.00, 0.00, 0.00, -60466.23, -0.03, 0.00, 0.00
73, 18162.31, -7399.23, -39180.19, -41079.11, 0.00, 0.00, 0.00, -60490.14, -0.03, -0.03, -0.03
74, 18179.61, -7390.13, -39165.53, -41050.23, 0.00, 0.00, 0.00, -60327.58, 0.00, -0.03, -0.03
75, 18184.39, -7387.94, -39144.61, -41046.12, 0.00, 0.00, 0.00, -60280.44, -0.03, -0.03, 0.00
76, 18176.15, -7391.10, -39154.00, -41070.23, 0.00, 0.00, 0.00, -60436.07, 0.00, -0.03, 0.00
77, 18175.19, -7389.51, -39176.21, -41076.67, 0.00, 0.00, 0.00, -60501.95, -0.03, -0.03, 0.00
78, 18191.88, -7379.34, -39164.25, -41047.95, 0.00, 0.00, 0.00, -60354.22, -0.03, -0.03, 0.00
79, 18182.09, -7391.50, -39154.71, -41048.35, 0.00, 0.00, 0.00, -60281.47, 0.00, -0.03, 0.00
80, 18174.34, -7391.99, -39158.36, -41062.68, 0.00, 0.00, 0.00, -60413.61, 0.00, -0.03, -0.03
81, 18169.42, -7390.87, -39183.75, -41075.29, 0.00, 0.00, 0.00, -60518.75, 0.00, -0.03, -0.03
82, 18178.32, -7382.76, -39179.84, -41056.13, 0.00, 0.00, 0.00, -60399.24, -0.03, -0.03, -0.03
83, 18182.65, -7384.59, -39154.67, -41043.30, 0.00, 0.00, 0.00, -60277.24, 0.00, -0.03, 0.00
84, 18178.88, -7387.03, -39149.64, -41056.00, 0.00, 0.00, 0.00, -60377.49, 0.00, -0.03, -0.03
85, 18167.18, -7388.53, -39170.05, -41074.55, 0.00, 0.00, 0.00, -60507.33, -0.03, -0.03, 0.00
86, 18178.29, -7384.77, -39170.38, -41057.56, 0.00, 0.00, 0.00, -60419.38, 0.00, -0.03, -0.03
87, 18185.63, -7386.09, -39151.38, -41041.96, 0.00, 0.00, 0.00, -60278.79, -0.03, -0.03, -0.03
88, 18182.54, -7383.45, -39136.38, -41048.95, 0.00, 0.00, 0.00, -60338.15, -0.03, -0.03, -0.03
89, 18161.35, -7400.48, -39168.82, -41083.38, 0.00, 0.00, 0.00, -60503.64, -0.03, 0.00, -0.03
90, 18167.14, -7393.82, -39180.21, -41074.44, 0.00, 0.00, 0.00, -60457.44, -0.03, -0.03, -0.03
91, 18176.88, -7388.68, -39160.19, -41053.78, 0.00, 0.00, 0.00, -60296.18, 0.00, -0.03, -0.03
92, 18173.71, -7392.37, -39141.79, -41055.79, 0.00, 0.00, 0.00, -60317.43, -0.03, -0.03, 0.00
93, 18159.85, -7396.35, -39156.43, -41071.51, 0.00, 0.00, 0.00, -60479.44, 0.00, -0.03, 0.00
94, 18163.59, -7394.60, -39169.82, -41065.36, 0.00, 0.00, 0.00, -60472.13, -0.03, 0.00, 0.00
95, 18179.32, -7386.94, -39151.23, -41038.29, 0.00, 0.00, 0.00, -60303.15, -0.03, 0.00, -0.03
96, 18176.42, -7389.29, -39137.03, -41041.38, 0.00, 0.00, 0.00, -60287.52, -0.03, -0.03, 0.00
97, 18160.90, -7399.86, -39156.57, -41071.71, 0.00, 0.00, 0.00, -60453.18, -0.03, -0.03, 0.00
98, 18166.87, -7393.67, -39171.07, -41066.34, 0.00, 0.00, 0.00, -60485.96, -0.03, -0.03, 0.00
99, 18178.65, -7388.88, -39164.10, -41040.06, 0.00, 0.00, 0.00, -60331.74, -0.03, 0.00, -0.03
100, 18173.91, -7397.67, -39154.09, -41043.48, 0.00, 0.00, 0.00, -60281.80, -0.03, 0.00, 0.00
101, 18163.88, -7402.16, -39165.17, -41068.56, 0.00, 0.00, 0.00, -60433.44, -0.03, 0.00, 0.00
102, 18161.66, -7399.08, -39185.33, -41075.00, 0.00, 0.00, 0.00, -60510.68, -0.03, -0.03, 0.00
103, 18164.12, -7397.20, -39180.02, -41051.05, 0.00, 0.00, 0.00, -60376.39, 0.00, 0.00, -0.03
104, 18163.25, -7397.78, -39159.72, -41043.32, 0.00, 0.00, 0.00, -60283.30, 0.00, -0.03, -0.03
105, 18161.62, -7397.18, -39164.03, -41064.15, 0.00, 0.00, 0.00, -60405.92, -0.03, -0.03, -0.03
106, 18158.24, -7397.31, -39185.56, -41075.64, 0.00, 0.00, 0.00, -60516.52, 0.00, 0.00, -0.03
107, 18172.33, -7384.86, -39177.62, -41050.30, 0.00, 0.00, 0.00, -60400.36, -0.03, -0.03, -0.03
108, 18169.73, -7393.22, -39162.69, -41047.46, 0.00, 0.00, 0.00, -60281.42, 0.00, -0.03, 0.00
109, 18160.86, -7403.81, -39165.04, -41075.49, 0.00, 0.00, 0.00, -60382.77, 0.00, -0.03, 0.00
110, 18162.74, -7402.38, -39182.32, -41091.45, 0.00, 0.00, 0.00, -60518.53, 0.00, -0.03, 0.00
111, 18170.31, -7395.57, -39184.89, -41072.25, 0.00, 0.00, 0.00, -60439.38, -0.03, -0.03, 0.00
112, 18169.87, -7398.85, -39169.35, -41056.93, 0.00, 0.00, 0.00, -60292.29, 0.00, -0.03, -0.03
113, 18172.64, -7392.59, -39157.15, -41064.51, 0.00, 0.00, 0.00, -60340.75, -0.03, -0.03, 0.00
114, 18166.96, -7391.03, -39174.98, -41084.32, 0.00, 0.00, 0.00, -60493.05, -0.03, -0.03, 0.00
115, 18174.45, -7388.12, -39183.86, -41072.27, 0.00, 0.00, 0.00, -60456.08, -0.03, -0.03, 0.00
116, 18184.73, -7385.51, -39165.91, -41047.30, 0.00, 0.00, 0.00, -60292.22, 0.00, -0.03, -0.03
117, 18180.89, -7385.62, -39148.34, -41047.39, 0.00, 0.00, 0.00, -60299.73, -0.03, -0.03, -0.03
118, 18171.48, -7387.99, -39163.27, -41069.61, 0.00, 0.00, 0.00, -60460.42, -0.03, -0.03, 0.00
119, 18165.17, -7393.33, -39182.74, -41073.09, 0.00, 0.00, 0.00, -60472.73, -0.03, -0.03, -0.03
120, 18171.19, -7391.74, -39166.49, -41044.60, 0.00, 0.00, 0.00, -60309.70, 0.00, -0.03, 0.00
121, 18179.21, -7390.36, -39144.07, -41035.16, 0.00, 0.00, 0.00, -60274.92, -0.03, 0.00, 0.00
122, 18167.50, -7397.47, -39155.94, -41058.75, 0.00, 0.00, 0.00, -60435.00, 0.00, -0.03, -0.03
123, 18158.45, -7403.12, -39181.69, -41069.14, 0.00, 0.00, 0.00, -60493.30, -0.03, -0.03, -0.03
124, 18174.27, -7396.50, -39170.27, -41040.91, 0.00, 0.00, 0.00, -60342.71, 0.00, -0.03, 0.00
125, 18172.97, -7399.99, -39150.66, -41032.86, 0.00, 0.00, 0.00, -60270.74, 0.00, -0.03, -0.03
126, 18157.39, -7410.27, -39164.93, -41062.30, 0.00, 0.00, 0.00, -60416.96, 0.00, -0.03, -0.03
127, 18153.15, -7409.80, -39195.77, -41082.75, 0.00, 0.00, 0.00, -60520.27, 0.00, 0.00, -0.03
128, 18158.51, -7405.69, -39200.60, -41067.95, 0.00, 0.00, 0.00, -60399.75, -0.03, -0.03, 0.00
129, 18160.52, -7404.31, -39174.98, -41052.17, 0.00, 0.00, 0.00, -60289.78, -0.03, -0.03, 0.00
130, 18149.77, -7412.08, -39171.14, -41069.45, 0.00, 0.00, 0.00, -60401.72, -0.03, 0.00, 0.00
131, 18148.61, -7408.80, -39192.93, -41082.97, 0.00, 0.00, 0.00, -60522.15, 0.00, -0.03, -0.03
132, 18144.63, -7411.64, -39209.27, -41079.38, 0.00, 0.00, 0.00, -60435.63, -0.03, -0.03, 0.00
133, 18157.13, -7406.45, -39185.22, -41061.92, 0.00, 0.00, 0.00, -60296.67, 0.00, -0.03, -0.03
134, 18156.43, -7406.94, -39173.13, -41073.54, 0.00, 0.00, 0.00, -60372.21, -0.03, -0.03, 0.00
135, 18143.87, -7412.15, -39192.31, -41093.19, 0.00, 0.00, 0.00, -60517.14, -0.03, 0.00, -0.03
136, 18152.66, -7404.28, -39194.39, -41077.34, 0.00, 0.00, 0.00, -60449.84, -0.03, 0.00, -0.03
137, 18160.93, -7400.24, -39174.83, -41057.31, 0.00, 0.00, 0.00, -60296.04, -0.03, 0.00, -0.03
138, 18158.24, -7404.60, -39166.74, -41067.75, 0.00, 0.00, 0.00, -60337.13, -0.03, -0.03, -0.03
139, 18141.93, -7413.22, -39190.16, -41095.09, 0.00, 0.00, 0.00, -60501.32, -0.03, -0.03, -0.03
140, 18149.64, -7406.12, -39191.08, -41076.07, 0.00, 0.00, 0.00, -60469.98, -0.03, -0.03, -0.03
141, 18156.79, -7405.62, -39169.40, -41053.18, 0.00, 0.00, 0.00, -60305.12, 0.00, -0.03, -0.03
142, 18158.45, -7406.97, -39149.73, -41056.78, 0.00, 0.00, 0.00, -60297.67, -0.03, -0.03, 0.00
143, 18150.91, -7407.35, -39162.98, -41076.27, 0.00, 0.00, 0.00, -60458.58, 0.00, -0.03, 0.00
144, 18151.74, -7401.65, -39178.74, -41070.77, 0.00, 0.00, 0.00, -60479.08, -0.03, 0.00, 0.00
145, 18156.41, -7402.14, -39160.97, -41040.13, 0.00, 0.00, 0.00, -60315.87, -0.03, -0.03, -0.03
146, 18153.30, -7412.26, -39150.18, -41043.39, 0.00, 0.00, 0.00, -60279.46, 0.00, 0.00, 0.00
147, 18145.88, -7411.55, -39161.35, -41069.94, 0.00, 0.00, 0.00, -60439.94, 0.00, -0.03, -0.03
148, 18153.15, -7406.79, -39177.73, -41072.65, 0.00, 0.00, 0.00, -60502.35, -0.03, 0.00, 0.00
149, 18157.01, -7412.26, -39177.55, -41055.88, 0.00, 0.00, 0.00, -60363.59, -0.03, -0.03, -0.03
150, 18157.13, -7412.46, -39156.52, -41047.17, 0.00, 0.00, 0.00, -60280.91, -0.03, -0.03, -0.03
151, 18144.61, -7417.81, -39162.51, -41064.76, 0.00, 0.00, 0.00, -60417.55, -0.03, -0.03, 0.00
152, 18139.09, -7422.81, -39189.34, -41079.22, 0.00, 0.00, 0.00, -60523.79, -0.03, -0.03, -0.03
153, 18147.80, -7420.20, -39189.69, -41065.41, 0.00, 0.00, 0.00, -60409.90, -0.03, 0.00, -0.03
154, 18154.20, -7418.01, -39163.77, -41050.74, 0.00, 0.00, 0.00, -60292.24, 0.00, -0.03, -0.03
155, 18148.21, -7420.91, -39162.96, -41070.66, 0.00, 0.00, 0.00, -60398.64, -0.03, -0.03, -0.03
156, 18142.37, -7423.30, -39188.55, -41090.44, 0.00, 0.00, 0.00, -60531.38, -0.03, -0.03, 0.00
157, 18156.28, -7406.61, -39183.81, -41066.23, 0.00, 0.00, 0.00, -60433.39, -0.03, -0.03, 0.00
158, 18157.86, -7409.76, -39157.73, -41044.75, 0.00, 0.00, 0.00, -60282.43, -0.03, 0.00, -0.03
159, 18148.30, -7421.90, -39150.78, -41056.73, 0.00, 0.00, 0.00, -60348.59, 0.00, 0.00, -0.03
160, 18147.63, -7415.21, -39166.31, -41077.88, 0.00, 0.00, 0.00, -60500.36, -0.03, -0.03, 0.00
161, 18158.74, -7404.22, -39173.15, -41066.43, 0.00, 0.00, 0.00, -60448.30, -0.03, -0.03, -0.03
162, 18168.23, -7402.09, -39153.59, -41040.06, 0.00, 0.00, 0.00, -60284.22, -0.03, -0.03, 0.00
163, 18161.84, -7406.70, -39141.05, -41043.14, 0.00, 0.00, 0.00, -60307.11, -0.03, -0.03, -0.03
164, 18144.05, -7414.14, -39162.87, -41067.37, 0.00, 0.00, 0.00, -60472.69, -0.03, 0.00, 0.00
165, 18149.04, -7409.96, -39177.51, -41060.51, 0.00, 0.00, 0.00, -60464.35, -0.03, -0.03, -0.03
166, 18157.89, -7410.07, -39158.00, -41035.70, 0.00, 0.00, 0.00, -60299.06, -0.03, -0.03, 0.00
167, 18159.99, -7411.64, -39133.68, -41032.86, 0.00, 0.00, 0.00, -60275.97, 0.00, -0.03, 0.00
168, 18155.00, -7408.75, -39136.61, -41051.12, 0.00, 0.00, 0.00, -60427.76, 0.00, -0.03, 0.00
169, 18160.95, -7399.70, -39142.04, -41044.93, 0.00, 0.00, 0.00, -60453.71, -0.03, 0.00, -0.03
170, 18154.00, -7411.97, -39143.91, -41033.49, 0.00, 0.00, 0.00, -60310.44, -0.03, 0.00, -0.03
171, 18153.21, -7412.51, -39117.88, -41019.74, 0.00, 0.00, 0.00, -60244.90, -0.03, 0.00, -0.03
172, 18142.69, -7421.52, -39134.77, -41045.42, 0.00, 0.00, 0.00, -60399.48, 0.00, 0.00, 0.00
173, 18153.95, -7407.30, -39148.70, -41041.73, 0.00, 0.00, 0.00, -60471.84, -0.03, -0.03, -0.03
174, 18155.79, -7411.21, -39156.43, -41031.21, 0.00, 0.00, 0.00, -60348.79, -0.03, 0.00, -0.03
175, 18150.02, -7421.72, -39143.87, -41034.25, 0.00, 0.00, 0.00, -60266.02, 0.00, -0.03, 0.00
176, 18139.85, -7427.46, -39150.22, -41060.71, 0.00, 0.00, 0.00, -60395.77, -0.03, -0.03, -0.03
177, 18133.84, -7428.54, -39172.28, -41077.79, 0.00, 0.00, 0.00, -60506.80, 0.00, 0.00, 0.00
178, 18145.12, -7423.46, -39164.82, -41056.62, 0.00, 0.00, 0.00, -60393.52, 0.00, -0.03, -0.03
179, 18150.44, -7431.35, -39143.29, -41045.94, 0.00, 0.00, 0.00, -60267.27, 0.00, 0.00, 0.00
180, 18141.75, -7434.68, -39139.82, -41062.34, 0.00, 0.00, 0.00, -60358.63, -0.03, -0.03, -0.03
181, 18143.96, -7421.40, -39150.55, -41065.50, 0.00, 0.00, 0.00, -60485.74, -0.03, 0.00, 0.00
182, 18141.03, -7423.42, -39170.22, -41060.27, 0.00, 0.00, 0.00, -60424.16, -0.03, -0.03, -0.03
183, 18153.24, -7418.50, -39152.48, -41043.88, 0.00, 0.00, 0.00, -60278.76, -0.03, 0.00, 0.00
184, 18149.04, -7417.72, -39139.56, -41051.82, 0.00, 0.00, 0.00, -60328.23, 0.00, -0.03, -0.03
185, 18137.05, -7421.43, -39158.60, -41068.91, 0.00, 0.00, 0.00, -60482.05, -0.03, 0.00, 0.00
186, 18143.13, -7420.42, -39170.58, -41060.67, 0.00, 0.00, 0.00, -60448.28, 0.00, -0.03, -0.03
187, 18154.29, -7419.80, -39156.28, -41039.79, 0.00, 0.00, 0.00, -60289.00, -0.03, 0.00, -0.03
188, 18150.35, -7424.35, -39144.41, -41046.77, 0.00, 0.00, 0.00, -60298.77, -0.03, -0.03, 0.00
189, 18142.51, -7423.62, -39157.55, -41062.66, 0.00, 0.00, 0.00, -60456.06, 0.00, -0.03, 0.00
190, 18146.78, -7415.79, -39168.28, -41052.87, 0.00, 0.00, 0.00, -60458.81, 0.00, -0.03, -0.03
191, 18159.83, -7408.31, -39150.89, -41021.69, 0.00, 0.00, 0.00, -60295.46, -0.03, 0.00, -0.03
192, 18158.47, -7409.63, -39125.48, -41012.77, 0.00, 0.00, 0.00, -60258.16, 0.00, -0.03, -0.03
193, 18148.43, -7413.22, -39131.78, -41034.52, 0.00, 0.00, 0.00, -60413.23, -0.03, 0.00, -0.03
194, 18146.04, -7416.62, -39156.93, -41045.76, 0.00, 0.00, 0.00, -60471.05, -0.03, -0.03, 0.00
195, 18145.79, -7422.79, -39161.35, -41029.89, 0.00, 0.00, 0.00, -60331.56, -0.03, -0.03, 0.00
196, 18145.62, -7424.89, -39141.93, -41022.58, 0.00, 0.00, 0.00, -60259.99, -0.03, 0.00, -0.03
197, 18141.37, -7422.16, -39151.14, -41043.88, 0.00, 0.00, 0.00, -60402.04, 0.00, 0.00, -0.03
198, 18137.28, -7423.30, -39171.79, -41052.91, 0.00, 0.00, 0.00, -60488.36, 0.00, 0.00, -0.03
199, 18141.50, -7423.57, -39167.72, -41030.74, 0.00, 0.00, 0.00, -60361.80, 0.00, 0.00, 0.00
200, 18153.55, -7416.80, -39138.84, -41012.84, 0.00, 0.00, 0.00, -60247.80, 0.00, -0.03, -0.03
201, 18140.54, -7430.48, -39152.12, -41050.14, 0.00, 0.00, 0.00, -60377.02, -0.03, 0.00, -0.03
202, 18134.55, -7436.18, -39179.59, -41073.59, 0.00, 0.00, 0.00, -60509.66, 0.00, 0.00, -0.03
203, 18134.93, -7439.98, -39192.55, -41065.90, 0.00, 0.00, 0.00, -60420.74, 0.00, -0.03, 0.00
204, 18139.63, -7442.01, -39176.84, -41055.59, 0.00, 0.00, 0.00, -60293.61, -0.03, -0.03, 0.00
205, 18138.02, -7441.39, -39159.41, -41065.27, 0.00, 0.00, 0.00, -60368.98, -0.03, -0.03, 0.00
206, 18134.42, -7439.42, -39169.00, -41076.18, 0.00, 0.00, 0.00, -60509.05, -0.03, 0.00, 0.00
207, 18140.21, -7434.10, -39174.05, -41061.56, 0.00, 0.00, 0.00, -60446.43, -0.03, -0.03, -0.03
208, 18143.87, -7437.23, -39159.29, -41045.33, 0.00, 0.00, 0.00, -60294.95, 0.00, 0.00, -0.03
209, 18143.42, -7435.49, -39143.51, -41048.29, 0.00, 0.00, 0.00, -60325.37, -0.03, -0.03, -0.03
210, 18131.78, -7437.03, -39167.79, -41070.14, 0.00, 0.00, 0.00, -60487.21, -0.03, 0.00, -0.03
211, 18152.05, -7421.83, -39171.52, -41050.92, 0.00, 0.00, 0.00, -60455.92, -0.03, -0.03, -0.03
212, 18160.48, -7418.43, -39158.73, -41032.93, 0.00, 0.00, 0.00, -60296.02, 0.00, -0.03, 0.00
213, 18158.65, -7419.64, -39142.17, -41028.35, 0.00, 0.00, 0.00, -60288.62, -0.03, -0.03, -0.03
214, 18146.26, -7426.21, -39153.04, -41042.18, 0.00, 0.00, 0.00, -60445.02, -0.03, -0.03, 0.00
215, 18150.29, -7419.57, -39167.74, -41043.25, 0.00, 0.00, 0.00, -60467.01, -0.03, -0.03, -0.03
216, 18165.55, -7411.15, -39158.73, -41026.02, 0.00, 0.00, 0.00, -60311.69, -0.03, -0.03, -0.03
217, 18161.26, -7412.87, -39137.55, -41022.31, 0.00, 0.00, 0.00, -60269.11, -0.03, 0.00, 0.00
218, 18139.65, -7427.53, -39147.71, -41045.45, 0.00, 0.00, 0.00, -60424.32, -0.03, -0.03, 0.00
219, 18139.36, -7428.69, -39169.69, -41053.89, 0.00, 0.00, 0.00, -60489.85, -0.03, -0.03, 0.00
220, 18148.07, -7422.03, -39166.09, -41032.01, 0.00, 0.00, 0.00, -60348.41, -0.03, -0.03, -0.03
221, 18156.32, -7416.29, -39140.07, -41018.89, 0.00, 0.00, 0.00, -60260.39, 0.00, 0.00, -0.03
222, 18144.61, -7422.77, -39147.96, -41051.04, 0.00, 0.00, 0.00, -60400.78, 0.00, -0.03, 0.00
223, 18143.16, -7420.15, -39171.74, -41066.55, 0.00, 0.00, 0.00, -60505.86, 0.00, 0.00, 0.00
224, 18152.23, -7414.01, -39168.77, -41045.11, 0.00, 0.00, 0.00, -60386.88, 0.00, -0.03, -0.03
225, 18159.21, -7415.75, -39151.67, -41031.59, 0.00, 0.00, 0.00, -60270.67, -0.03, 0.00, -0.03
226, 18150.91, -7423.44, -39158.89, -41053.36, 0.00, 0.00, 0.00, -60379.12, 0.00, -0.03, -0.03
227, 18142.42, -7425.72, -39176.35, -41066.81, 0.00, 0.00, 0.00, -60504.00, 0.00, -0.03, -0.03
228, 18149.37, -7419.01, -39181.36, -41045.18, 0.00, 0.00, 0.00, -60415.80, -0.03, -0.03, -0.03
229, 18153.88, -7417.81, -39166.98, -41017.55, 0.00, 0.00, 0.00, -60270.79, 0.00, 0.00, 0.00
230, 18147.58, -7423.57, -39156.99, -41025.98, 0.00, 0.00, 0.00, -60335.67, -0.03, 0.00, 0.00
231, 18144.12, -7424.44, -39173.35, -41050.14, 0.00, 0.00, 0.00, -60487.53, -0.03, -0.03, -0.03
232, 18152.83, -7413.76, -39174.98, -41031.03, 0.00, 0.00, 0.00, -60433.01, -0.03, -0.03, 0.00
233, 18156.68, -7414.03, -39156.93, -41005.91, 0.00, 0.00, 0.00, -60274.43, 0.00, -0.03, -0.03
234, 18143.29, -7427.46, -39153.75, -41019.63, 0.00, 0.00, 0.00, -60306.10, -0.03, -0.03, -0.03
235, 18139.74, -7429.18, -39170.40, -41044.89, 0.00, 0.00, 0.00, -60467.19, -0.03, 0.00, -0.03
236, 18145.12, -7421.99, -39177.38, -41041.67, 0.00, 0.00, 0.00, -60455.32, -0.03, -0.03, -0.03
237, 18158.22, -7415.46, -39152.72, -41013.93, 0.00, 0.00, 0.00, -60288.73, -0.03, -0.03, -0.03
238, 18156.86, -7419.64, -39136.43, -41022.65, 0.00, 0.00, 0.00, -60278.34, -0.03, -0.03, -0.03
239, 18148.48, -7418.86, -39152.03, -41052.11, 0.00, 0.00, 0.00, -60441.17, -0.03, 0.00, -0.03
240, 18152.25, -7414.83, -39166.45, -41051.46, 0.00, 0.00, 0.00, -60470.90, 0.00, -0.03, -0.03
241, 18161.19, -7416.02, -39158.55, -41029.06, 0.00, 0.00, 0.00, -60318.28, 0.00, 0.00, -0.03
242, 18160.26, -7416.46, -39141.68, -41023.81, 0.00, 0.00, 0.00, -60264.05, -0.03, -0.03, 0.00
243, 18138.08, -7430.77, -39164.66, -41059.01, 0.00, 0.00, 0.00, -60426.42, 0.00, -0.03, -0.03
244, 18141.88, -7419.15, -39174.20, -41055.97, 0.00, 0.00, 0.00, -60493.96, -0.03, -0.03, -0.03
245, 18143.31, -7424.47, -39174.47, -41039.79, 0.00, 0.00, 0.00, -60364.46, -0.03, -0.03, -0.03
246, 18145.62, -7425.07, -39155.61, -41030.34, 0.00, 0.00, 0.00, -60270.98, 0.00, -0.03, -0.03
247, 18138.75, -7428.51, -39157.71, -41052.60, 0.00, 0.00, 0.00, -60396.36, -0.03, 0.00, 0.00
248, 18137.03, -7424.44, -39172.50, -41059.41, 0.00, 0.00, 0.00, -60503.44, -0.03, -0.03, -0.03
249, 18150.80, -7415.01, -39167.59, -41038.52, 0.00, 0.00, 0.00, -60393.38, -0.03, -0.03, 0.00
250, 18155.52, -7413.89, -39141.05, -41018.85, 0.00, 0.00, 0.00, -60259.94, -0.03, -0.03, 0.00
251, 18147.78, -7423.24, -39138.64, -41036.48, 0.00, 0.00, 0.00, -60349.51, -0.03, 0.00, 0.00
252, 18137.95, -7423.48, -39164.70, -41057.92, 0.00, 0.00, 0.00, -60490.21, -0.03, 0.00, -0.03
253, 18148.70, -7412.46, -39168.66, -41038.27, 0.00, 0.00, 0.00, -60410.55, -0.03, 0.00, -0.03
254, 18165.96, -7403.99, -39141.17, -41009.46, 0.00, 0.00, 0.00, -60254.20, -0.03, -0.03, -0.03
255, 18158.31, -7409.00, -39131.02, -41023.61, 0.00, 0.00, 0.00, -60310.28, -0.03, -0.03, -0.03
0, 18149.86, -7412.75, -39148.86, -41047.55, 0.00, 0.00, 0.00, -60463.79, -0.03, -0.03, -0.03
1, 18160.12, -7405.49, -39161.20, -41039.48, 0.00, 0.00, 0.00, -60427.45, -0.03, -0.03, -0.03
2, 18169.98, -7402.43, -39142.08, -41016.54, 0.00, 0.00, 0.00, -60262.16, 0.00, -0.03, -0.03
3, 18162.45, -7410.63, -39129.05, -41023.52, 0.00, 0.00, 0.00, -60275.05, 0.00, -0.03, 0.00
4, 18150.82, -7421.67, -39148.86, -41049.87, 0.00, 0.00, 0.00, -60444.03, -0.03, 0.00, 0.00
5, 18155.58, -7416.08, -39160.59, -41037.11, 0.00, 0.00, 0.00, -60448.50, -0.03, -0.03, 0.00
6, 18158.20, -7416.73, -39157.62, -41013.24, 0.00, 0.00, 0.00, -60296.11, 0.00, -0.03, 0.00
7, 18143.78, -7431.06, -39152.14, -41027.07, 0.00, 0.00, 0.00, -60278.90, 0.00, 0.00, 0.00
8, 18136.38, -7429.59, -39159.94, -41056.73, 0.00, 0.00, 0.00, -60439.63, -0.03, 0.00, -0.03
9, 18133.52, -7433.50, -39184.64, -41070.46, 0.00, 0.00, 0.00, -60499.78, -0.03, -0.03, -0.03
10, 18145.19, -7428.58, -39175.23, -41045.45, 0.00, 0.00, 0.00, -60351.25, 0.00, -0.03, -0.03
11, 18144.27, -7430.97, -39154.15, -41038.27, 0.00, 0.00, 0.00, -60280.57, 0.00, -0.03, -0.03
12, 18130.91, -7442.46, -39166.89, -41068.40, 0.00, 0.00, 0.00, -60430.11, 0.00, -0.03, 0.00
13, 18130.28, -7438.12, -39187.28, -41079.93, 0.00, 0.00, 0.00, -60523.29, -0.03, -0.03, 0.00
14, 18134.62, -7436.45, -39188.51, -41063.21, 0.00, 0.00, 0.00, -60403.22, -0.03, -0.03, 0.00
15, 18134.24, -7437.52, -39164.88, -41045.98, 0.00, 0.00, 0.00, -60291.86, 0.00, -0.03, 0.00
16, 18127.73, -7436.92, -39157.46, -41055.84, 0.00, 0.00, 0.00, -60395.64, 0.00, -0.03, 0.00
17, 18125.68, -7441.25, -39179.52, -41070.08, 0.00, 0.00, 0.00, -60519.36, -0.03, -0.03, 0.00
18, 18122.75, -7445.08, -39190.63, -41058.41, 0.00, 0.00, 0.00, -60429.64, -0.03, 0.00, -0.03
19, 18131.24, -7437.56, -39165.53, -41037.29, 0.00, 0.00, 0.00, -60288.29, -0.03, -0.03, -0.03
20, 18144.41, -7428.40, -39149.01, -41039.97, 0.00, 0.00, 0.00, -60354.38, 0.00, 0.00, 0.00
21, 18135.80, -7434.28, -39179.97, -41066.84, 0.00, 0.00, 0.00, -60505.66, 0.00, -0.03, -0.03
22, 18139.94, -7429.27, -39191.46, -41054.95, 0.00, 0.00, 0.00, -60446.80, -0.03, -0.03, -0.03
23, 18144.30, -7431.46, -39170.09, -41034.45, 0.00, 0.00, 0.00, -60294.12, -0.03, -0.03, 0.00
24, 18144.43, -7430.39, -39153.82, -41036.75, 0.00, 0.00, 0.00, -60328.38, -0.03, -0.03, -0.03
25, 18134.75, -7431.64, -39169.35, -41050.88, 0.00, 0.00, 0.00, -60484.60, -0.03, -0.03, -0.03
26, 18131.24, -7434.50, -39184.53, -41044.11, 0.00, 0.00, 0.00, -60466.79, 0.00, 0.00, -0.03
27, 18148.50, -7429.25, -39164.32, -41014.38, 0.00, 0.00, 0.00, -60300.29, 0.00, 0.00, 0.00
28, 18142.60, -7435.69, -39152.43, -41020.28, 0.00, 0.00, 0.00, -60300.22, 0.00, -0.03, -0.03
29, 18128.29, -7442.95, -39171.57, -41051.05, 0.00, 0.00, 0.00, -60466.92, -0.03, -0.03, -0.03
30, 18114.57, -7452.79, -39202.16, -41068.40, 0.00, 0.00, 0.00, -60505.03, 0.00, -0.03, -0.03
31, 18132.96, -7439.67, -39182.74, -41041.18, 0.00, 0.00, 0.00, -60342.00, -0.03, -0.03, -0.03
32, 18159.74, -7415.62, -39140.72, -41017.73, 0.00, 0.00, 0.00, -60274.02, -0.03, -0.03, -0.03
33, 18143.96, -7424.62, -39159.32, -41049.16, 0.00, 0.00, 0.00, -60433.84, -0.03, -0.03, 0.00
34, 18126.62, -7441.66, -39196.00, -41073.99, 0.00, 0.00, 0.00, -60516.27, -0.03, -0.03, 0.00
35, 18148.34, -7426.61, -39178.07, -41041.15, 0.00, 0.00, 0.00, -60362.45, -0.03, 0.00, -0.03
36, 18150.89, -7427.53, -39154.09, -41028.12, 0.00, 0.00, 0.00, -60275.90, 0.00, -0.03, -0.03
37, 18140.59, -7431.22, -39153.04, -41042.23, 0.00, 0.00, 0.00, -60405.09, -0.03, -0.03, -0.03
38, 18134.73, -7432.85, -39174.98, -41054.43, 0.00, 0.00, 0.00, -60505.86, -0.03, -0.03, -0.03
39, 18144.52, -7423.77, -39172.04, -41031.12, 0.00, 0.00, 0.00, -60385.29, 0.00, -0.03, 0.00
40, 18153.57, -7415.28, -39146.44, -41014.04, 0.00, 0.00, 0.00, -60262.11, 0.00, -0.03, 0.00
41, 18142.08, -7423.44, -39152.70, -41041.42, 0.00, 0.00, 0.00, -60374.94, -0.03, 0.00, 0.00
42, 18132.58, -7426.61, -39181.63, -41063.11, 0.00, 0.00, 0.00, -60514.13, -0.03, -0.03, -0.03
43, 18147.76, -7412.49, -39181.00, -41042.59, 0.00, 0.00, 0.00, -60423.02, -0.03, -0.03, -0.03
44, 18158.38, -7408.89, -39159.27, -41025.46, 0.00, 0.00, 0.00, -60281.18, -0.03, -0.03, 0.00
45, 18152.59, -7411.23, -39151.74, -41040.80, 0.00, 0.00, 0.00, -60346.18, -0.03, -0.03, 0.00
46, 18147.96, -7413.49, -39174.87, -41062.75, 0.00, 0.00, 0.00, -60501.86, -0.03, -0.03, 0.00
47, 18153.77, -7411.82, -39187.19, -41055.88, 0.00, 0.00, 0.00, -60458.32, 0.00, 0.00, -0.03
48, 18133.59, -7438.53, -39196.58, -41067.33, 0.00, 0.00, 0.00, -60331.87, 0.00, -0.03, 0.00
49, 18142.66, -7429.97, -39172.50, -41065.45, 0.00, 0.00, 0.00, -60350.40, -0.03, -0.03, -0.03
50, 18133.59, -7432.58, -39187.55, -41085.34, 0.00, 0.00, 0.00, -60514.75, -0.03, 0.00, 0.00
51, 18139.18, -7429.34, -39198.27, -41076.61, 0.00, 0.00, 0.00, -60505.41, -0.03, -0.03, -0.03
52, 18145.01, -7432.13, -39186.32, -41053.16, 0.00, 0.00, 0.00, -60345.62, -0.03, 0.00, -0.03
53, 18146.13, -7429.43, -39168.23, -41050.52, 0.00, 0.00, 0.00, -60325.84, -0.03, -0.03, 0.00
54, 18137.95, -7431.42, -39177.45, -41071.48, 0.00, 0.00, 0.00, -60481.67, -0.03, -0.03, -0.03
55, 18139.58, -7425.45, -39191.30, -41071.06, 0.00, 0.00, 0.00, -60514.69, -0.03, -0.03, -0.03
56, 18148.92, -7424.67, -39184.48, -41052.57, 0.00, 0.00, 0.00, -60362.83, 0.00, -0.03, -0.03
57, 18152.41, -7426.52, -39161.44, -41046.18, 0.00, 0.00, 0.00, -60300.02, -0.03, 0.00, -0.03
58, 18137.93, -7434.86, -39175.41, -41072.09, 0.00, 0.00, 0.00, -60448.88, 0.00, -0.03, 0.00
59, 18142.66, -7425.54, -39187.88, -41071.75, 0.00, 0.00, 0.00, -60517.14, 0.00, -0.03, 0.00
60, 18151.61, -7422.57, -39181.91, -41049.69, 0.00, 0.00, 0.00, -60383.35, 0.00, -0.03, -0.03
61, 18151.36, -7427.53, -39160.28, -41040.48, 0.00, 0.00, 0.00, -60286.16, -0.03, 0.00, -0.03
62, 18146.80, -7429.41, -39157.44, -41055.88, 0.00, 0.00, 0.00, -60404.29, -0.03, -0.03, 0.00
63, 18144.10, -7427.73, -39177.36, -41064.85, 0.00, 0.00, 0.00, -60509.61, -0.03, -0.03, -0.03
64, 18154.11, -7417.29, -39178.02, -41044.60, 0.00, 0.00, 0.00, -60398.64, 0.00, -0.03, 0.00
65, 18160.26, -7415.50, -39159.50, -41033.13, 0.00, 0.00, 0.00, -60276.82, -0.03, -0.03, -0.03
66, 18153.21, -7424.74, -39159.29, -41052.02, 0.00, 0.00, 0.00, -60372.42, -0.03, 0.00, -0.03
67, 18142.64, -7427.19, -39182.27, -41070.90, 0.00, 0.00, 0.00, -60510.13, -0.03, -0.03, 0.00
68, 18154.09, -7419.77, -39185.69, -41053.98, 0.00, 0.00, 0.00, -60434.24, 0.00, -0.03, 0.00
69, 18160.19, -7419.24, -39164.93, -41036.50, 0.00, 0.00, 0.00, -60288.93, 0.00, -0.03, -0.03
70, 18145.66, -7436.51, -39163.77, -41063.50, 0.00, 0.00, 0.00, -60352.14, -0.03, -0.03, -0.03
71, 18140.70, -7433.59, -39177.29, -41083.67, 0.00, 0.00, 0.00, -60505.03, -0.03, 0.00, 0.00
72, 18150.15, -7427.42, -39186.12, -41072.80, 0.00, 0.00, 0.00, -60470.79, -0.03, 0.00, -0.03
73, 18159.32, -7424.18, -39166.80, -41046.77, 0.00, 0.00, 0.00, -60309.27, 0.00, 0.00, 0.00
74, 18153.71, -7427.95, -39148.32, -41052.15, 0.00, 0.00, 0.00, -60318.46, 0.00, -0.03, -0.03
75, 18145.77, -7425.25, -39160.23, -41073.72, 0.00, 0.00, 0.00, -60475.17, 0.00, 0.00, 0.00
76, 18143.29, -7425.25, -39184.57, -41075.42, 0.00, 0.00, 0.00, -60490.01, 0.00, -0.03, 0.00
77, 18154.53, -7419.82, -39170.63, -41047.95, 0.00, 0.00, 0.00, -60330.53, 0.00, -0.03, -0.03
78, 18159.67, -7420.91, -39150.13, -41044.86, 0.00, 0.00, 0.00, -60296.15, 0.00, -0.03, -0.03
79, 18151.00, -7423.17, -39157.59, -41067.17, 0.00, 0.00, 0.00, -60448.26, -0.03, -0.03, 0.00
80, 18134.28, -7435.02, -39193.74, -41086.62, 0.00, 0.00, 0.00, -60516.81, -0.03, 0.00, -0.03
81, 18161.39, -7413.00, -39178.23, -41052.75, 0.00, 0.00, 0.00, -60358.94, 0.00, -0.03, 0.00
82, 18155.85, -7422.86, -39158.89, -41053.00, 0.00, 0.00, 0.00, -60289.87, -0.03, -0.03, -0.03
83, 18134.71, -7434.28, -39171.30, -41082.19, 0.00, 0.00, 0.00, -60440.16, 0.00, -0.03, -0.03
84, 18139.13, -7427.73, -39188.73, -41083.55, 0.00, 0.00, 0.00, -60524.61, 0.00, -0.03, 0.00
85, 18156.90, -7414.79, -39177.18, -41052.31, 0.00, 0.00, 0.00, -60386.97, -0.03, -0.03, 0.00
86, 18164.05, -7412.53, -39150.40, -41033.44, 0.00, 0.00, 0.00, -60273.98, 0.00, -0.03, -0.03
87, 18151.11, -7416.35, -39150.66, -41049.47, 0.00, 0.00, 0.00, -60385.02, -0.03, -0.03, -0.03
88, 18146.62, -7416.49, -39175.23, -41066.01, 0.00, 0.00, 0.00, -60505.03, -0.03, -0.03, 0.00
89, 18155.85, -7408.93, -39174.34, -41046.74, 0.00, 0.00, 0.00, -60406.13, 0.00, -0.03, -0.03
90, 18158.31, -7418.16, -39156.19, -41040.86, 0.00, 0.00, 0.00, -60279.81, -0.03, 0.00, -0.03
91, 18154.67, -7418.75, -39143.40, -41055.66, 0.00, 0.00, 0.00, -60357.44, -0.03, 0.00, -0.03
92, 18145.06, -7420.89, -39161.08, -41074.70, 0.00, 0.00, 0.00, -60499.69, 0.00, 0.00, -0.03
93, 18145.28, -7422.25, -39171.88, -41062.23, 0.00, 0.00, 0.00, -60438.60, -0.03, 0.00, -0.03
94, 18153.17, -7420.87, -39154.64, -41039.57, 0.00, 0.00, 0.00, -60288.91, -0.03, -0.03, 0.00
95, 18149.75, -7431.08, -39146.24, -41052.89, 0.00, 0.00, 0.00, -60331.51, 0.00, -0.03, -0.03
96, 18143.27, -7430.64, -39158.40, -41069.70, 0.00, 0.00, 0.00, -60486.48, -0.03, -0.03, -0.03
97, 18151.20, -7422.50, -39167.05, -41056.38, 0.00, 0.00, 0.00, -60463.03, -0.03, -0.03, 0.00
98, 18157.73, -7419.91, -39154.11, -41035.12, 0.00, 0.00, 0.00, -60301.59, 0.00, 0.00, -0.03
99, 18150.26, -7427.95, -39147.47, -41047.64, 0.00, 0.00, 0.00, -60309.07, -0.03, 0.00, -0.03
100, 18144.81, -7433.52, -39166.96, -41072.47, 0.00, 0.00, 0.00, -60475.04, -0.03, 0.00, -0.03
101, 18148.59, -7427.19, -39185.63, -41068.58, 0.00, 0.00, 0.00, -60497.81, -0.03, -0.03, 0.00
102, 18154.51, -7423.48, -39177.18, -41047.39, 0.00, 0.00, 0.00, -60343.14, -0.03, -0.03, 0.00
103, 18149.95, -7426.32, -39158.87, -41044.42, 0.00, 0.00, 0.00, -60297.05, 0.00, -0.03, -0.03
104, 18133.97, -7435.67, -39175.84, -41072.20, 0.00, 0.00, 0.00, -60454.74, 0.00, 0.00, 0.00
105, 18137.12, -7434.70, -39196.44, -41082.48, 0.00, 0.00, 0.00, -60521.59, 0.00, -0.03, -0.03
106, 18156.23, -7421.58, -39178.56, -41050.96, 0.00, 0.00, 0.00, -60372.26, -0.03, 0.00, -0.03
107, 18160.14, -7419.62, -39149.57, -41035.05, 0.00, 0.00, 0.00, -60281.11, -0.03, 0.00, 0.00
108, 18159.14, -7423.30, -39149.91, -41053.29, 0.00, 0.00, 0.00, -60409.01, 0.00, -0.03, -0.03
109, 18152.14, -7425.47, -39171.83, -41063.95, 0.00, 0.00, 0.00, -60507.73, 0.00, -0.03, 0.00
110, 18166.42, -7415.06, -39167.34, -41038.92, 0.00, 0.00, 0.00, -60383.59, -0.03, -0.03, -0.03
111, 18161.44, -7422.46, -39155.88, -41032.64, 0.00, 0.00, 0.00, -60275.07, -0.03, 0.00, 0.00
112, 18161.15, -7416.98, -39147.56, -41040.21, 0.00, 0.00, 0.00, -60369.20, 0.00, 0.00, 0.00
113, 18161.13, -7411.68, -39162.85, -41054.79, 0.00, 0.00, 0.00, -60494.14, -0.03, -0.03, 0.00
114, 18167.68, -7405.18, -39166.76, -41041.69, 0.00, 0.00, 0.00, -60411.58, -0.03, 0.00, -0.03
115, 18174.05, -7403.90, -39150.51, -41029.00, 0.00, 0.00, 0.00, -60275.48, -0.03, -0.03, -0.03
116, 18161.75, -7414.39, -39150.24, -41049.40, 0.00, 0.00, 0.00, -60346.27, 0.00, 0.00, -0.03
117, 18157.42, -7411.03, -39167.21, -41065.16, 0.00, 0.00, 0.00, -60496.58, 0.00, 0.00, -0.03
118, 18168.37, -7400.24, -39173.87, -41048.87, 0.00, 0.00, 0.00, -60445.51, 0.00, -0.03, 0.00
119, 18174.34, -7401.20, -39160.16, -41035.12, 0.00, 0.00, 0.00, -60295.41, 0.00, 0.00, 0.00
120, 18160.54, -7410.77, -39152.25, -41049.11, 0.00, 0.00, 0.00, -60327.49, -0.03, -0.03, 0.00
121, 18157.04, -7411.55, -39170.25, -41067.35, 0.00, 0.00, 0.00, -60484.73, 0.00, -0.03, 0.00
122, 18162.89, -7404.93, -39181.98, -41059.28, 0.00, 0.00, 0.00, -60475.93, 0.00, -0.03, 0.00
123, 18164.84, -7409.78, -39169.35, -41043.46, 0.00, 0.00, 0.00, -60320.20, -0.03, -0.03, -0.03
124, 18156.81, -7421.74, -39157.17, -41053.00, 0.00, 0.00, 0.00, -60311.98, -0.03, -0.03, 0.00
125, 18147.52, -7424.69, -39167.72, -41075.29, 0.00, 0.00, 0.00, -60469.47, -0.03, -0.03, -0.03
126, 18158.27, -7418.21, -39180.84, -41072.67, 0.00, 0.00, 0.00, -60500.89, -0.03, -0.03, -0.03
127, 18164.28, -7415.44, -39171.52, -41052.42, 0.00, 0.00, 0.00, -60348.12, -0.03, -0.03, 0.00
128, 18163.25, -7417.00, -39150.80, -41044.89, 0.00, 0.00, 0.00, -60291.59, -0.03, 0.00, -0.03
129, 18157.08, -7417.52, -39153.93, -41060.78, 0.00, 0.00, 0.00, -60431.49, 0.00, 0.00, 0.00
130, 18160.93, -7412.24, -39169.66, -41061.36, 0.00, 0.00, 0.00, -60502.50, -0.03, -0.03, -0.03
131, 18166.67, -7408.82, -39171.59, -41043.97, 0.00, 0.00, 0.00, -60373.76, -0.03, -0.03, -0.03
132, 18179.03, -7401.47, -39146.91, -41029.13, 0.00, 0.00, 0.00, -60273.15, -0.03, -0.03, -0.03
133, 18169.15, -7406.43, -39150.96, -41055.44, 0.00, 0.00, 0.00, -60397.81, -0.03, -0.03, -0.03
134, 18153.42, -7414.81, -39178.45, -41077.52, 0.00, 0.00, 0.00, -60517.50, 0.00, -0.03, 0.00
135, 18164.21, -7407.32, -39179.75, -41053.92, 0.00, 0.00, 0.00, -60405.23, -0.03, 0.00, -0.03
136, 18181.09, -7401.65, -39154.87, -41034.00, 0.00, 0.00, 0.00, -60272.80, 0.00, 0.00, -0.03
137, 18179.19, -7402.74, -39149.86, -41049.16, 0.00, 0.00, 0.00, -60362.58, 0.00, -0.03, -0.03
138, 18173.85, -7400.91, -39168.21, -41063.28, 0.00, 0.00, 0.00, -60501.21, -0.03, -0.03, -0.03
139, 18180.35, -7399.70, -39172.86, -41048.82, 0.00, 0.00, 0.00, -60426.40, -0.03, -0.03, -0.03
140, 18192.93, -7392.64, -39149.19, -41027.34, 0.00, 0.00, 0.00, -60276.98, 0.00, 0.00, 0.00
141, 18185.04, -7395.83, -39140.74, -41042.09, 0.00, 0.00, 0.00, -60333.88, -0.03, 0.00, -0.03
142, 18170.36, -7399.77, -39160.84, -41066.25, 0.00, 0.00, 0.00, -60489.92, -0.03, -0.03, -0.03
143, 18161.42, -7407.30, -39180.77, -41068.04, 0.00, 0.00, 0.00, -60464.55, -0.03, -0.03, -0.03
144, 18169.58, -7413.49, -39167.23, -41053.76, 0.00, 0.00, 0.00, -60312.31, 0.00, -0.03, -0.03
145, 18182.00, -7400.01, -39140.36, -41045.42, 0.00, 0.00, 0.00, -60314.88, -0.03, -0.03, -0.03
146, 18169.24, -7407.19, -39163.81, -41074.86, 0.00, 0.00, 0.00, -60482.79, 0.00, -0.03, -0.03
147, 18161.64, -7409.45, -39187.03, -41079.87, 0.00, 0.00, 0.00, -60498.37, 0.00, -0.03, -0.03
148, 18172.77, -7402.63, -39172.46, -41050.52, 0.00, 0.00, 0.00, -60339.02, -0.03, 0.00, 0.00
149, 18176.73, -7403.61, -39152.19, -41042.45, 0.00, 0.00, 0.00, -60302.25, -0.03, -0.03, -0.03
150, 18164.35, -7411.03, -39169.20, -41071.20, 0.00, 0.00, 0.00, -60467.28, -0.03, -0.03, -0.03
151, 18162.33, -7410.52, -39191.04, -41079.84, 0.00, 0.00, 0.00, -60520.09, -0.03, -0.03, -0.03
152, 18169.15, -7408.64, -39182.14, -41062.37, 0.00, 0.00, 0.00, -60375.84, -0.03, 0.00, 0.00
153, 18173.13, -7405.36, -39156.16, -41050.36, 0.00, 0.00, 0.00, -60297.90, -0.03, -0.03, -0.03
154, 18165.17, -7409.25, -39163.29, -41068.02, 0.00, 0.00, 0.00, -60434.55, 0.00, -0.03, -0.03
155, 18163.16, -7405.22, -39184.89, -41075.33, 0.00, 0.00, 0.00, -60521.13, -0.03, -0.03, -0.03
156, 18173.60, -7401.04, -39177.78, -41055.23, 0.00, 0.00, 0.00, -60391.98, -0.03, -0.03, 0.00
157, 18185.11, -7393.55, -39145.61, -41035.36, 0.00, 0.00, 0.00, -60275.93, 0.00, -0.03, 0.00
158, 18169.64, -7400.57, -39149.59, -41058.68, 0.00, 0.00, 0.00, -60390.93, 0.00, -0.03, -0.03
159, 18171.61, -7396.59, -39164.84, -41074.52, 0.00, 0.00, 0.00, -60504.88, -0.03, 0.00, -0.03
160, 18184.84, -7390.60, -39165.48, -41059.68, 0.00, 0.00, 0.00, -60409.01, 0.00, -0.03, 0.00
161, 18188.87, -7391.32, -39142.62, -41040.86, 0.00, 0.00, 0.00, -60271.84, 0.00, -0.03, -0.03
162, 18183.68, -7395.75, -39136.47, -41050.45, 0.00, 0.00, 0.00, -60351.43, 0.00, -0.03, -0.03
163, 18177.76, -7393.89, -39156.39, -41064.87, 0.00, 0.00, 0.00, -60496.16, -0.03, 0.00, 0.00
164, 18181.65, -7396.57, -39173.33, -41062.86, 0.00, 0.00, 0.00, -60444.23, -0.03, -0.03, -0.03
165, 18185.11, -7402.29, -39159.52, -41050.86, 0.00, 0.00, 0.00, -60296.69, -0.03, -0.03, -0.03
166, 18192.11, -7392.21, -39137.90, -41042.70, 0.00, 0.00, 0.00, -60325.16, -0.03, -0.03, -0.03
167, 18182.56, -7394.74, -39158.94, -41065.09, 0.00, 0.00, 0.00, -60484.64, 0.00, -0.03, 0.00
168, 18181.82, -7395.50, -39175.14, -41063.98, 0.00, 0.00, 0.00, -60465.87, -0.03, -0.03, -0.03
169, 18189.85, -7397.82, -39166.13, -41048.17, 0.00, 0.00, 0.00, -60312.25, 0.00, 0.00, 0.00
170, 18188.87, -7396.86, -39151.16, -41047.75, 0.00, 0.00, 0.00, -60312.29, -0.03, 0.00, -0.03
171, 18174.65, -7400.53, -39168.64, -41070.48, 0.00, 0.00, 0.00, -60472.48, -0.03, 0.00, 0.00
172, 18175.86, -7397.13, -39186.00, -41072.36, 0.00, 0.00, 0.00, -60495.84, -0.03, -0.03, 0.00
173, 18181.78, -7401.04, -39177.60, -41055.13, 0.00, 0.00, 0.00, -60343.88, -0.03, -0.03, -0.03
174, 18172.66, -7410.99, -39163.21, -41060.38, 0.00, 0.00, 0.00, -60303.53, -0.03, -0.03, 0.00
175, 18157.39, -7420.04, -39179.14, -41091.38, 0.00, 0.00, 0.00, -60462.38, 0.00, 0.00, -0.03
176, 18167.59, -7408.06, -39189.60, -41090.11, 0.00, 0.00, 0.00, -60518.39, 0.00, -0.03, 0.00
177, 18179.70, -7399.72, -39176.35, -41063.98, 0.00, 0.00, 0.00, -60370.52, 0.00, -0.03, -0.03
178, 18177.00, -7406.41, -39160.12, -41060.18, 0.00, 0.00, 0.00, -60290.32, -0.03, 0.00, -0.03
179, 18167.81, -7413.02, -39163.77, -41083.71, 0.00, 0.00, 0.00, -60425.75, -0.03, -0.03, -0.03
180, 18167.77, -7403.99, -39180.24, -41087.91, 0.00, 0.00, 0.00, -60520.07, -0.03, -0.03, -0.03
181, 18188.22, -7390.58, -39174.92, -41057.27, 0.00, 0.00, 0.00, -60395.35, 0.00, 0.00, -0.03
182, 18201.54, -7384.28, -39146.17, -41032.97, 0.00, 0.00, 0.00, -60270.72, -0.03, 0.00, -0.03
183, 18187.19, -7391.81, -39149.17, -41057.85, 0.00, 0.00, 0.00, -60379.01, -0.03, -0.03, -0.03
184, 18174.67, -7398.23, -39173.38, -41082.50, 0.00, 0.00, 0.00, -60512.61, 0.00, -0.03, -0.03
185, 18185.00, -7394.31, -39181.87, -41070.95, 0.00, 0.00, 0.00, -60430.15, 0.00, -0.03, -0.03
186, 18201.83, -7384.48, -39153.39, -41044.98, 0.00, 0.00, 0.00, -60279.77, -0.03, -0.03, -0.03
187, 18192.20, -7388.35, -39143.13, -41059.64, 0.00, 0.00, 0.00, -60346.18, 0.00, 0.00, -0.03
188, 18186.96, -7381.93, -39162.69, -41078.32, 0.00, 0.00, 0.00, -60498.93, -0.03, 0.00, -0.03
189, 18193.11, -7379.79, -39175.81, -41070.95, 0.00, 0.00, 0.00, -60457.51, 0.00, -0.03, -0.03
190, 18196.91, -7380.93, -39164.32, -41051.23, 0.00, 0.00, 0.00, -60306.26, 0.00, -0.03, -0.03
191, 18193.16, -7388.73, -39153.64, -41060.60, 0.00, 0.00, 0.00, -60332.65, -0.03, -0.03, -0.03
192, 18187.12, -7387.30, -39168.97, -41079.64, 0.00, 0.00, 0.00, -60489.85, -0.03, 0.00, 0.00
193, 18186.50, -7387.18, -39183.03, -41073.50, 0.00, 0.00, 0.00, -60483.80, -0.03, 0.00, 0.00
194, 18189.76, -7389.40, -39175.10, -41057.23, 0.00, 0.00, 0.00, -60328.47, -0.03, -0.03, -0.03
195, 18193.85, -7390.89, -39157.82, -41062.03, 0.00, 0.00, 0.00, -60312.07, 0.00, -0.03, 0.00
196, 18187.26, -7388.61, -39167.34, -41079.64, 0.00, 0.00, 0.00, -60467.03, 0.00, -0.03, 0.00
197, 18190.77, -7377.77, -39177.76, -41069.05, 0.00, 0.00, 0.00, -60491.62, -0.03, 0.00, 0.00
198, 18191.03, -7383.05, -39179.86, -41055.30, 0.00, 0.00, 0.00, -60348.37, 0.00, -0.03, 0.00
199, 18191.95, -7383.94, -39161.51, -41052.38, 0.00, 0.00, 0.00, -60294.50, -0.03, -0.03, 0.00
200, 18180.86, -7389.64, -39160.46, -41072.16, 0.00, 0.00, 0.00, -60437.57, -0.03, 0.00, -0.03
201, 18180.26, -7392.53, -39175.90, -41081.43, 0.00, 0.00, 0.00, -60507.82, 0.00, -0.03, 0.00
202, 18200.20, -7378.65, -39161.46, -41050.48, 0.00, 0.00, 0.00, -60364.62, -0.03, -0.03, 0.00
203, 18204.00, -7378.71, -39139.78, -41040.66, 0.00, 0.00, 0.00, -60271.45, -0.03, 0.00, -0.03
204, 18194.97, -7383.90, -39140.90, -41062.14, 0.00, 0.00, 0.00, -60393.03, -0.03, -0.03, -0.03
205, 18191.53, -7383.85, -39163.07, -41071.93, 0.00, 0.00, 0.00, -60500.27, 0.00, 0.00, -0.03
206, 18199.77, -7377.33, -39167.90, -41052.04, 0.00, 0.00, 0.00, -60392.98, -0.03, 0.00, 0.00
207, 18210.32, -7373.77, -39147.54, -41030.13, 0.00, 0.00, 0.00, -60264.93, 0.00, 0.00, -0.03
208, 18202.66, -7380.84, -39144.47, -41047.37, 0.00, 0.00, 0.00, -60354.78, -0.03, 0.00, -0.03
209, 18197.38, -7381.48, -39168.21, -41068.65, 0.00, 0.00, 0.00, -60495.40, 0.00, -0.03, -0.03
210, 18210.59, -7375.02, -39171.92, -41054.92, 0.00, 0.00, 0.00, -60422.30, -0.03, -0.03, 0.00
211, 18215.55, -7372.77, -39150.29, -41035.86, 0.00, 0.00, 0.00, -60275.93, -0.03, 0.00, -0.03
212, 18207.82, -7375.94, -39137.68, -41045.22, 0.00, 0.00, 0.00, -60327.16, -0.03, -0.03, -0.03
213, 18190.88, -7385.66, -39157.71, -41071.17, 0.00, 0.00, 0.00, -60483.41, 0.00, 0.00, -0.03
214, 18200.78, -7377.93, -39162.78, -41058.99, 0.00, 0.00, 0.00, -60446.31, -0.03, -0.03, -0.03
215, 18213.25, -7372.88, -39146.33, -41033.49, 0.00, 0.00, 0.00, -60287.21, -0.03, -0.03, -0.03
216, 18205.90, -7378.31, -39134.06, -41040.77, 0.00, 0.00, 0.00, -60301.92, -0.03, -0.03, 0.00
217, 18195.24, -7385.62, -39150.62, -41067.69, 0.00, 0.00, 0.00, -60465.45, 0.00, 0.00, 0.00
218, 18198.81, -7380.64, -39162.16, -41063.39, 0.00, 0.00, 0.00, -60470.74, -0.03, -0.03, 0.00
219, 18202.37, -7379.74, -39148.32, -41044.86, 0.00, 0.00, 0.00, -60313.52, -0.03, -0.03, 0.00
220, 18203.21, -7387.39, -39134.59, -41049.13, 0.00, 0.00, 0.00, -60288.93, 0.00, -0.03, -0.03
221, 18189.60, -7393.11, -39152.19, -41073.95, 0.00, 0.00, 0.00, -60450.02, -0.03, -0.03, 0.00
222, 18188.69, -7386.67, -39170.07, -41075.84, 0.00, 0.00, 0.00, -60496.92, -0.03, -0.03, -0.03
223, 18198.10, -7379.09, -39158.98, -41051.23, 0.00, 0.00, 0.00, -60347.05, -0.03, 0.00, 0.00
224, 18206.01, -7376.21, -39134.24, -41042.41, 0.00, 0.00, 0.00, -60271.61, 0.00, 0.00, -0.03
225, 18199.79, -7379.18, -39138.35, -41062.59, 0.00, 0.00, 0.00, -60408.09, -0.03, 0.00, 0.00
226, 18187.81, -7384.88, -39164.77, -41074.93, 0.00, 0.00, 0.00, -60502.50, -0.03, -0.03, -0.03
227, 18201.27, -7372.81, -39159.50, -41047.30, 0.00, 0.00, 0.00, -60374.68, -0.03, -0.03, -0.03
228, 18210.64, -7369.82, -39137.21, -41034.83, 0.00, 0.00, 0.00, -60266.70, -0.03, 0.00, 0.00
229, 18204.40, -7377.62, -39140.38, -41057.09, 0.00, 0.00, 0.00, -60379.55, -0.03, -0.03, 0.00
230, 18200.53, -7375.76, -39159.32, -41068.25, 0.00, 0.00, 0.00, -60498.61, -0.03, -0.03, 0.00
231, 18211.37, -7370.35, -39157.50, -41046.00, 0.00, 0.00, 0.00, -60398.48, -0.03, 0.00, -0.03
232, 18220.78, -7368.16, -39134.46, -41028.95, 0.00, 0.00, 0.00, -60263.50, 0.00, 0.00, -0.03
233, 18217.63, -7364.74, -39122.10, -41036.86, 0.00, 0.00, 0.00, -60334.75, 0.00, -0.03, 0.00
234, 18205.81, -7369.24, -39148.07, -41059.08, 0.00, 0.00, 0.00, -60482.48, -0.03, -0.03, -0.03
235, 18207.69, -7366.80, -39161.04, -41048.75, 0.00, 0.00, 0.00, -60427.38, -0.03, -0.03, -0.03
236, 18216.31, -7367.27, -39140.45, -41025.95, 0.00, 0.00, 0.00, -60269.75, -0.03, -0.03, 0.00
237, 18204.27, -7375.78, -39130.66, -41040.68, 0.00, 0.00, 0.00, -60308.56, -0.03, 0.00, 0.00
238, 18196.78, -7379.00, -39151.52, -41065.79, 0.00, 0.00, 0.00, -60471.79, -0.03, 0.00, 0.00
239, 18214.44, -7363.29, -39155.98, -41049.94, 0.00, 0.00, 0.00, -60445.95, 0.00, 0.00, -0.03
240, 18215.93, -7366.22, -39144.52, -41030.80, 0.00, 0.00, 0.00, -60291.01, 0.00, -0.03, 0.00
241, 18209.07, -7371.40, -39128.20, -41031.34, 0.00, 0.00, 0.00, -60286.21, -0.03, -0.03, 0.00
242, 18197.92, -7375.23, -39140.38, -41053.40, 0.00, 0.00, 0.00, -60448.37, -0.03, -0.03, -0.03
243, 18195.97, -7375.27, -39159.83, -41058.32, 0.00, 0.00, 0.00, -60475.08, -0.03, -0.03, 0.00
244, 18202.66, -7372.75, -39151.74, -41041.69, 0.00, 0.00, 0.00, -60323.54, 0.00, -0.03, -0.03
245, 18201.56, -7375.23, -39139.18, -41044.93, 0.00, 0.00, 0.00, -60287.59, -0.03, 0.00, -0.03
246, 18189.89, -7380.05, -39148.57, -41070.34, 0.00, 0.00, 0.00, -60438.80, -0.03, -0.03, 0.00
247, 18189.74, -7382.24, -39168.21, -41077.90, 0.00, 0.00, 0.00, -60497.95, -0.03, -0.03, -0.03
248, 18204.42, -7373.75, -39154.36, -41050.43, 0.00, 0.00, 0.00, -60351.18, 0.00, -0.03, -0.03
249, 18206.46, -7374.85, -39135.98, -41044.26, 0.00, 0.00, 0.00, -60272.80, -0.03, 0.00, 0.00
250, 18199.42, -7376.12, -39140.38, -41065.16, 0.00, 0.00, 0.00, -60401.95, -0.03, -0.03, -0.03
251, 18196.11, -7373.71, -39162.82, -41073.34, 0.00, 0.00, 0.00, -60501.16, 0.00, 0.00, 0.00
252, 18203.37, -7366.96, -39162.87, -41051.68, 0.00, 0.00, 0.00, -60386.23, -0.03, 0.00, -0.03
253, 18213.45, -7362.71, -39132.23, -41027.88, 0.00, 0.00, 0.00, -60260.99, -0.03, 0.00, 0.00
254, 18206.75, -7367.36, -39130.88, -41043.93, 0.00, 0.00, 0.00, -60361.09, -0.03, 0.00, -0.03
255, 18207.46, -7361.57, -39149.21, -41054.05, 0.00, 0.00, 0.00, -60484.33, -0.03, -0.03, -0.03
0, 18206.08, -7362.49, -39158.96, -41044.71, 0.00, 0.00, 0.00, -60403.46, 0.00, -0.03, -0.03
1, 18213.23, -7361.66, -39142.69, -41029.62, 0.00, 0.00, 0.00, -60269.33, -0.03, -0.03, -0.03
2, 18213.70, -7360.81, -39130.95, -41040.06, 0.00, 0.00, 0.00, -60332.52, -0.03, -0.03, -0.03
3, 18209.76, -7358.73, -39146.87, -41056.87, 0.00, 0.00, 0.00, -60480.04, -0.03, -0.03, -0.03
4, 18217.10, -7352.45, -39158.54, -41046.32, 0.00, 0.00, 0.00, -60433.80, -0.03, -0.03, -0.03
5, 18223.69, -7354.51, -39144.96, -41029.55, 0.00, 0.00, 0.00, -60282.74, -0.03, -0.03, 0.00
6, 18218.62, -7361.77, -39131.36, -41036.68, 0.00, 0.00, 0.00, -60306.41, -0.03, -0.03, 0.00
7, 18207.11, -7367.63, -39148.09, -41061.74, 0.00, 0.00, 0.00, -60465.78, 0.00, -0.03, 0.00
8, 18212.71, -7360.61, -39154.00, -41052.75, 0.00, 0.00, 0.00, -60451.45, -0.03, -0.03, 0.00
9, 18217.88, -7359.45, -39140.79, -41027.23, 0.00, 0.00, 0.00, -60293.00, -0.03, -0.03, -0.03
10, 18213.36, -7364.09, -39128.29, -41031.14, 0.00, 0.00, 0.00, -60281.07, -0.03, 0.00, -0.03
11, 18204.36, -7371.78, -39142.62, -41057.89, 0.00, 0.00, 0.00, -60442.51, 0.00, 0.00, -0.03
12, 18204.00, -7370.71, -39158.00, -41055.71, 0.00, 0.00, 0.00, -60475.68, -0.03, -0.03, -0.03
13, 18212.22, -7366.58, -39147.96, -41033.78, 0.00, 0.00, 0.00, -60321.50, -0.03, 0.00, -0.03
14, 18210.14, -7373.04, -39130.01, -41032.82, 0.00, 0.00, 0.00, -60266.83, -0.03, -0.03, -0.03
15, 18199.88, -7376.34, -39135.02, -41054.68, 0.00, 0.00, 0.00, -60416.20, -0.03, 0.00, -0.03
16, 18208.69, -7366.06, -39147.71, -41055.32, 0.00, 0.00, 0.00, -60486.32, -0.03, 0.00, 0.00
17, 18219.55, -7362.31, -39143.58, -41033.29, 0.00, 0.00, 0.00, -60354.20, -0.03, 0.00, -0.03
18, 18221.21, -7363.31, -39121.96, -41019.96, 0.00, 0.00, 0.00, -60261.87, -0.03, -0.03, -0.03
19, 18200.47, -7378.33, -39131.58, -41047.57, 0.00, 0.00, 0.00, -60389.20, -0.03, 0.00, 0.00
20, 18196.29, -7376.32, -39152.48, -41063.82, 0.00, 0.00, 0.00, -60498.39, 0.00, -0.03, 0.00
21, 18202.81, -7370.17, -39154.31, -41049.58, 0.00, 0.00, 0.00, -60391.35, -0.03, 0.00, -0.03
22, 18213.05, -7364.27, -39129.81, -41027.12, 0.00, 0.00, 0.00, -60262.07, 0.00, 0.00, -0.03
23, 18215.20, -7359.51, -39118.21, -41029.42, 0.00, 0.00, 0.00, -60346.51, 0.00, 0.00, -0.03
24, 18209.23, -7362.75, -39138.13, -41048.35, 0.00, 0.00, 0.00, -60482.70, -0.03, 0.00, 0.00
25, 18212.49, -7363.76, -39149.57, -41042.76, 0.00, 0.00, 0.00, -60413.70, 0.00, 0.00, -0.03
26, 18227.58, -7355.82, -39122.28, -41021.57, 0.00, 0.00, 0.00, -60262.40, 0.00, 0.00, 0.00
27, 18223.18, -7360.36, -39108.38, -41035.57, 0.00, 0.00, 0.00, -60311.93, -0.03, -0.03, -0.03
28, 18211.55, -7368.03, -39128.63, -41062.03, 0.00, 0.00, 0.00, -60468.02, -0.03, -0.03, -0.03
29, 18220.18, -7361.59, -39133.95, -41049.25, 0.00, 0.00, 0.00, -60427.65, 0.00, 0.00, -0.03
30, 18229.95, -7356.45, -39118.55, -41022.07, 0.00, 0.00, 0.00, -60271.59, 0.00, -0.03, 0.00
31, 18225.84, -7358.73, -39107.68, -41027.43, 0.00, 0.00, 0.00, -60285.51, 0.00, 0.00, -0.03
32, 18214.08, -7362.35, -39124.29, -41053.61, 0.00, 0.00, 0.00, -60448.95, -0.03, -0.03, -0.03
33, 18214.50, -7362.13, -39141.90, -41049.83, 0.00, 0.00, 0.00, -60458.16, 0.00, -0.03, -0.03
34, 18228.25, -7356.38, -39127.67, -41022.91, 0.00, 0.00, 0.00, -60296.15, -0.03, -0.03, 0.00
35, 18230.73, -7357.88, -39106.48, -41017.19, 0.00, 0.00, 0.00, -60261.89, -0.03, -0.03, -0.03
36, 18216.78, -7363.71, -39121.65, -41046.47, 0.00, 0.00, 0.00, -60420.83, 0.00, -0.03, 0.00
37, 18219.60, -7359.49, -39142.55, -41053.98, 0.00, 0.00, 0.00, -60474.48, 0.00, -0.03, 0.00
38, 18226.57, -7358.89, -39136.27, -41031.57, 0.00, 0.00, 0.00, -60330.87, -0.03, -0.03, -0.03
39, 18224.11, -7362.42, -39116.82, -41025.89, 0.00, 0.00, 0.00, -60263.77, 0.00, 0.00, -0.03
40, 18221.54, -7360.59, -39117.83, -41048.87, 0.00, 0.00, 0.00, -60402.32, 0.00, -0.03, 0.00
41, 18227.80, -7351.40, -39133.61, -41053.47, 0.00, 0.00, 0.00, -60482.34, -0.03, -0.03, -0.03
42, 18231.54, -7349.21, -39133.77, -41035.88, 0.00, 0.00, 0.00, -60356.39, -0.03, 0.00, -0.03
43, 18232.41, -7356.43, -39111.95, -41030.00, 0.00, 0.00, 0.00, -60252.63, -0.03, 0.00, -0.03
44, 18223.51, -7358.98, -39106.88, -41048.11, 0.00, 0.00, 0.00, -60364.28, 0.00, 0.00, -0.03
45, 18212.25, -7361.48, -39127.75, -41063.59, 0.00, 0.00, 0.00, -60480.84, 0.00, 0.00, -0.03
46, 18226.17, -7355.33, -39130.48, -41043.10, 0.00, 0.00, 0.00, -60380.57, 0.00, 0.00, -0.03
47, 18230.64, -7357.28, -39112.13, -41023.03, 0.00, 0.00, 0.00, -60247.79, 0.00, 0.00, -0.03
48, 18222.21, -7362.51, -39105.09, -41036.68, 0.00, 0.00, 0.00, -60326.17, -0.03, -0.03, 0.00
49, 18220.54, -7356.41, -39121.86, -41054.99, 0.00, 0.00, 0.00, -60465.20, 0.00, 0.00, -0.03
50, 18227.47, -7346.93, -39128.23, -41040.75, 0.00, 0.00, 0.00, -60402.05, 0.00, -0.03, -0.03
51, 18238.53, -7345.70, -39109.09, -41017.37, 0.00, 0.00, 0.00, -60250.89, -0.03, -0.03, 0.00
52, 18233.79, -7349.92, -39099.05, -41025.87, 0.00, 0.00, 0.00, -60290.83, 0.00, -0.03, 0.00
53, 18230.42, -7348.74, -39114.01, -41042.25, 0.00, 0.00, 0.00, -60443.77, -0.03, 0.00, -0.03
54, 18231.85, -7344.07, -39133.57, -41035.70, 0.00, 0.00, 0.00, -60424.47, -0.03, -0.03, 0.00
55, 18241.32, -7336.47, -39115.71, -41006.15, 0.00, 0.00, 0.00, -60261.02, -0.03, -0.03, -0.03
56, 18234.91, -7342.39, -39101.61, -41006.93, 0.00, 0.00, 0.00, -60259.88, -0.03, -0.03, -0.03
57, 18219.93, -7352.36, -39119.39, -41035.43, 0.00, 0.00, 0.00, -60423.40, -0.03, 0.00, 0.00
58, 18217.01, -7356.45, -39140.43, -41039.16, 0.00, 0.00, 0.00, -60448.08, 0.00, -0.03, -0.03
59, 18222.06, -7353.46, -39128.92, -41015.74, 0.00, 0.00, 0.00, -60294.19, 0.00, -0.03, -0.03
60, 18225.84, -7354.28, -39106.41, -41013.37, 0.00, 0.00, 0.00, -60251.63, 0.00, 0.00, 0.00
61, 18213.34, -7359.51, -39121.70, -41042.81, 0.00, 0.00, 0.00, -60408.58, 0.00, 0.00, -0.03
62, 18207.75, -7361.52, -39143.31, -41056.31, 0.00, 0.00, 0.00, -60474.90, -0.03, 0.00, 0.00
63, 18227.06, -7352.49, -39130.68, -41029.06, 0.00, 0.00, 0.00, -60327.80, -0.03, -0.03, -0.03
64, 18227.82, -7355.85, -39114.59, -41019.29, 0.00, 0.00, 0.00, -60246.84, 0.00, -0.03, -0.03
65, 18222.24, -7357.57, -39118.32, -41043.08, 0.00, 0.00, 0.00, -60378.95, -0.03, -0.03, -0.03
66, 18214.57, -7360.23, -39143.16, -41063.11, 0.00, 0.00, 0.00, -60482.61, -0.03, -0.03, 0.00
67, 18225.52, -7355.09, -39145.52, -41049.56, 0.00, 0.00, 0.00, -60367.95, -0.03, -0.03, -0.03
68, 18230.84, -7353.05, -39126.77, -41037.36, 0.00, 0.00, 0.00, -60257.02, 0.00, -0.03, -0.03
69, 18229.81, -7353.81, -39121.61, -41049.18, 0.00, 0.00, 0.00, -60355.72, -0.03, 0.00, 0.00
70, 18220.09, -7358.10, -39145.75, -41068.78, 0.00, 0.00, 0.00, -60487.71, -0.03, -0.03, 0.00
71, 18225.77, -7357.19, -39149.13, -41056.53, 0.00, 0.00, 0.00, -60402.50, -0.03, 0.00, 0.00
72, 18229.03, -7358.66, -39129.32, -41041.58, 0.00, 0.00, 0.00, -60263.83, -0.03, -0.03, -0.03
73, 18224.40, -7360.29, -39116.65, -41046.34, 0.00, 0.00, 0.00, -60327.31, -0.03, -0.03, -0.03
74, 18220.92, -7355.13, -39130.71, -41053.47, 0.00, 0.00, 0.00, -60464.35, 0.00, -0.03, -0.03
75, 18228.61, -7350.62, -39143.49, -41040.35, 0.00, 0.00, 0.00, -60414.39, 0.00, -0.03, 0.00
76, 18242.40, -7344.20, -39121.65, -41014.80, 0.00, 0.00, 0.00, -60253.59, 0.00, -0.03, -0.03
77, 18237.75, -7345.95, -39105.89, -41019.72, 0.00, 0.00, 0.00, -60278.65, -0.03, -0.03, -0.03
78, 18223.96, -7353.66, -39128.85, -41049.67, 0.00, 0.00, 0.00, -60443.68, -0.03, -0.03, -0.03
79, 18229.01, -7345.10, -39142.13, -41044.86, 0.00, 0.00, 0.00, -60435.41, 0.00, 0.00, -0.03
80, 18238.87, -7341.39, -39121.92, -41019.50, 0.00, 0.00, 0.00, -60271.84, -0.03, -0.03, 0.00
81, 18241.32, -7346.10, -39105.25, -41026.27, 0.00, 0.00, 0.00, -60259.74, -0.03, -0.03, 0.00
82, 18227.85, -7351.87, -39118.99, -41054.59, 0.00, 0.00, 0.00, -60418.48, 0.00, -0.03, -0.03
83, 18232.00, -7344.54, -39135.15, -41054.95, 0.00, 0.00, 0.00, -60452.57, -0.03, -0.03, 0.00
84, 18238.15, -7343.87, -39128.09, -41033.46, 0.00, 0.00, 0.00, -60302.81, 0.00, -0.03, 0.00
85, 18236.10, -7344.58, -39111.28, -41030.65, 0.00, 0.00, 0.00, -60249.93, 0.00, 0.00, 0.00
86, 18227.91, -7344.98, -39115.13, -41053.76, 0.00, 0.00, 0.00, -60395.66, -0.03, -0.03, -0.03
87, 18223.85, -7347.85, -39134.26, -41064.15, 0.00, 0.00, 0.00, -60470.88, 0.00, 0.00, -0.03
88, 18230.84, -7346.46, -39127.93, -41041.20, 0.00, 0.00, 0.00, -60333.08, -0.03, 0.00, 0.00
89, 18239.96, -7339.55, -39105.34, -41027.83, 0.00, 0.00, 0.00, -60239.36, 0.00, 0.00, 0.00
90, 18228.43, -7348.56, -39119.84, -41056.29, 0.00, 0.00, 0.00, -60373.09, -0.03, 0.00, -0.03
91, 18228.47, -7343.64, -39140.79, -41069.18, 0.00, 0.00, 0.00, -60480.04, 0.00, -0.03, -0.03
92, 18235.04, -7337.85, -39144.00, -41050.68, 0.00, 0.00, 0.00, -60371.52, -0.03, 0.00, -0.03
93, 18243.96, -7333.85, -39118.99, -41030.02, 0.00, 0.00, 0.00, -60243.47, -0.03, 0.00, -0.03
94, 18233.55, -7343.38, -39112.80, -41042.74, 0.00, 0.00, 0.00, -60332.77, -0.03, -0.03, 0.00
95, 18233.75, -7340.69, -39128.83, -41054.99, 0.00, 0.00, 0.00, -60462.79, -0.03, -0.03, -0.03
96, 18244.41, -7332.06, -39133.43, -41039.39, 0.00, 0.00, 0.00, -60389.41, 0.00, -0.03, 0.00
97, 18254.29, -7328.31, -39110.03, -41018.64, 0.00, 0.00, 0.00, -60242.69, 0.00, -0.03, -0.03
98, 18250.87, -7333.94, -39101.29, -41032.35, 0.00, 0.00, 0.00, -60299.82, -0.03, -0.03, 0.00
99, 18239.69, -7337.90, -39118.28, -41052.91, 0.00, 0.00, 0.00, -60450.92, -0.03, -0.03, 0.00
100, 18243.54, -7333.47, -39128.20, -41045.67, 0.00, 0.00, 0.00, -60414.48, -0.03, -0.03, 0.00
101, 18252.61, -7326.28, -39108.87, -41020.75, 0.00, 0.00, 0.00, -60252.30, -0.03, 0.00, 0.00
102, 18247.05, -7335.04, -39097.56, -41028.44, 0.00, 0.00, 0.00, -60266.27, 0.00, 0.00, -0.03
103, 18239.29, -7340.11, -39110.03, -41050.88, 0.00, 0.00, 0.00, -60424.90, -0.03, 0.00, -0.03
104, 18242.78, -7336.24, -39126.75, -41045.49, 0.00, 0.00, 0.00, -60431.98, 0.00, -0.03, -0.03
105, 18253.95, -7334.10, -39116.49, -41022.29, 0.00, 0.00, 0.00, -60275.21, 0.00, -0.03, -0.03
106, 18257.89, -7333.52, -39093.65, -41016.77, 0.00, 0.00, 0.00, -60246.27, -0.03, -0.03, 0.00
107, 18239.63, -7341.59, -39108.09, -41044.60, 0.00, 0.00, 0.00, -60408.31, -0.03, -0.03, -0.03
108, 18234.11, -7344.76, -39129.90, -41051.08, 0.00, 0.00, 0.00, -60460.17, 0.00, 0.00, -0.03
109, 18242.40, -7340.00, -39119.60, -41029.38, 0.00, 0.00, 0.00, -60312.43, -0.03, -0.03, -0.03
110, 18236.79, -7345.99, -39104.20, -41023.96, 0.00, 0.00, 0.00, -60248.81, 0.00, 0.00, 0.00
111, 18227.58, -7354.82, -39111.91, -41043.88, 0.00, 0.00, 0.00, -60389.70, 0.00, -0.03, 0.00
112, 18218.53, -7359.00, -39136.54, -41058.12, 0.00, 0.00, 0.00, -60481.14, 0.00, -0.03, 0.00
113, 18234.49, -7349.50, -39127.75, -41032.48, 0.00, 0.00, 0.00, -60350.18, -0.03, 0.00, 0.00
114, 18241.95, -7346.46, -39104.42, -41018.85, 0.00, 0.00, 0.00, -60245.30, -0.03, -0.03, 0.00
115, 18237.37, -7345.50, -39098.09, -41038.27, 0.00, 0.00, 0.00, -60354.60, -0.03, 0.00, 0.00
116, 18236.14, -7347.49, -39119.78, -41056.49, 0.00, 0.00, 0.00, -60471.17, -0.03, -0.03, -0.03
117, 18247.76, -7335.57, -39121.52, -41037.62, 0.00, 0.00, 0.00, -60369.63, 0.00, -0.03, 0.00
118, 18252.81, -7330.01, -39102.41, -41021.17, 0.00, 0.00, 0.00, -60238.93, 0.00, -0.03, -0.03
119, 18244.25, -7335.55, -39098.56, -41037.29, 0.00, 0.00, 0.00, -60321.68, -0.03, -0.03, 0.00
120, 18235.47, -7334.03, -39120.51, -41056.22, 0.00, 0.00, 0.00, -60464.44, -0.03, -0.03, -0.03
121, 18239.69, -7327.77, -39129.79, -41043.43, 0.00, 0.00, 0.00, -60400.78, -0.03, 0.00, -0.03
122, 18254.07, -7321.36, -39111.02, -41019.68, 0.00, 0.00, 0.00, -60250.67, -0.03, -0.03, -0.03
123, 18252.90, -7323.10, -39100.35, -41025.78, 0.00, 0.00, 0.00, -60292.82, 0.00, -0.03, -0.03
124, 18238.38, -7329.40, -39118.57, -41045.98, 0.00, 0.00, 0.00, -60445.84, -0.03, -0.03, -0.03
125, 18251.12, -7317.76, -39119.93, -41025.39, 0.00, 0.00, 0.00, -60411.71, -0.03, -0.03, -0.03
126, 18260.44, -7320.33, -39110.50, -41005.61, 0.00, 0.00, 0.00, -60256.10, 0.00, -0.03, -0.03
127, 18257.29, -7328.56, -39094.68, -41009.39, 0.00, 0.00, 0.00, -60259.54, -0.03, 0.00, -0.03
128, 18246.49, -7331.86, -39106.54, -41030.11, 0.00, 0.00, 0.00, -60414.06, -0.03, 0.00, -0.03
129, 18248.37, -7327.71, -39122.73, -41028.01, 0.00, 0.00, 0.00, -60430.38, -0.03, 0.00, -0.03
130, 18254.63, -7326.77, -39113.27, -41011.07, 0.00, 0.00, 0.00, -60278.76, -0.03, -0.03, 0.00
131, 18254.20, -7327.15, -39090.16, -41008.41, 0.00, 0.00, 0.00, -60236.07, -0.03, -0.03, 0.00
132, 18247.14, -7327.59, -39096.57, -41030.58, 0.00, 0.00, 0.00, -60386.61, -0.03, 0.00, 0.00
133, 18238.31, -7329.52, -39118.95, -41045.22, 0.00, 0.00, 0.00, -60452.35, 0.00, 0.00, 0.00
134, 18249.04, -7333.29, -39116.85, -41030.85, 0.00, 0.00, 0.00, -60318.01, -0.03, 0.00, -0.03
135, 18254.54, -7331.64, -39096.60, -41022.54, 0.00, 0.00, 0.00, -60237.37, -0.03, -0.03, -0.03
136, 18241.68, -7338.73, -39105.76, -41046.41, 0.00, 0.00, 0.00, -60375.77, 0.00, -0.03, -0.03
137, 18234.29, -7338.55, -39126.84, -41053.43, 0.00, 0.00, 0.00, -60469.67, 0.00, 0.00, -0.03
138, 18245.84, -7332.24, -39125.14, -41028.28, 0.00, 0.00, 0.00, -60346.63, 0.00, -0.03, -0.03
139, 18253.10, -7328.49, -39104.02, -41012.99, 0.00, 0.00, 0.00, -60235.11, -0.03, -0.03, -0.03
140, 18242.93, -7331.75, -39099.44, -41030.29, 0.00, 0.00, 0.00, -60336.21, -0.03, -0.03, -0.03
141, 18237.10, -7331.28, -39119.82, -41047.55, 0.00, 0.00, 0.00, -60461.60, -0.03, -0.03, -0.03
142, 18247.09, -7331.48, -39127.60, -41033.35, 0.00, 0.00, 0.00, -60377.09, -0.03, -0.03, 0.00
143, 18256.59, -7326.43, -39108.24, -41006.42, 0.00, 0.00, 0.00, -60235.40, 0.00, -0.03, -0.03
144, 18252.05, -7329.36, -39098.32, -41016.21, 0.00, 0.00, 0.00, -60300.24, -0.03, -0.03, -0.03
145, 18243.00, -7329.49, -39115.93, -41039.01, 0.00, 0.00, 0.00, -60446.45, -0.03, -0.03, -0.03
146, 18259.07, -7318.54, -39121.68, -41026.94, 0.00, 0.00, 0.00, -60389.63, -0.03, -0.03, 0.00
147, 18275.93, -7311.75, -39098.54, -40995.98, 0.00, 0.00, 0.00, -60229.57, -0.03, -0.03, -0.03
148, 18270.45, -7316.13, -39083.12, -40997.75, 0.00, 0.00, 0.00, -60258.71, -0.03, -0.03, -0.03
149, 18257.66, -7317.74, -39096.24, -41020.08, 0.00, 0.00, 0.00, -60412.88, -0.03, -0.03, 0.00
150, 18267.37, -7302.74, -39097.49, -41007.70, 0.00, 0.00, 0.00, -60392.45, -0.03, -0.03, 0.00
151, 18278.81, -7297.49, -39082.27, -40984.29, 0.00, 0.00, 0.00, -60231.94, -0.03, 0.00, 0.00
152, 18269.24, -7310.56, -39078.58, -40997.73, 0.00, 0.00, 0.00, -60229.93, 0.00, -0.03, 0.00
153, 18257.75, -7312.13, -39089.31, -41022.69, 0.00, 0.00, 0.00, -60386.57, -0.03, 0.00, -0.03
154, 18252.57, -7317.31, -39108.73, -41028.88, 0.00, 0.00, 0.00, -60423.87, -0.03, -0.03, -0.03
155, 18257.49, -7318.39, -39099.26, -41006.82, 0.00, 0.00, 0.00, -60275.23, 0.00, -0.03, -0.03
156, 18254.49, -7327.77, -39084.97, -41006.46, 0.00, 0.00, 0.00, -60226.30, -0.03, -0.03, -0.03
157, 18244.97, -7335.40, -39094.32, -41032.44, 0.00, 0.00, 0.00, -60378.59, -0.03, -0.03, -0.03
158, 18239.85, -7337.50, -39114.41, -41043.86, 0.00, 0.00, 0.00, -60454.07, -0.03, -0.03, 0.00
159, 18252.84, -7331.98, -39110.21, -41021.95, 0.00, 0.00, 0.00, -60320.14, -0.03, -0.03, -0.03
160, 18254.20, -7330.03, -39091.28, -41008.03, 0.00, 0.00, 0.00, -60229.81, 0.00, -0.03, -0.03
161, 18243.11, -7330.28, -39091.08, -41023.07, 0.00, 0.00, 0.00, -60348.32, -0.03, -0.03, 0.00
162, 18234.46, -7334.41, -39115.15, -41041.96, 0.00, 0.00, 0.00, -60456.84, -0.03, -0.03, -0.03
163, 18248.84, -7326.77, -39118.30, -41022.42, 0.00, 0.00, 0.00, -60351.43, 0.00, -0.03, 0.00
164, 18256.88, -7327.10, -39100.82, -41011.36, 0.00, 0.00, 0.00, -60228.70, -0.03, 0.00, -0.03
165, 18253.06, -7325.34, -39095.97, -41025.93, 0.00, 0.00, 0.00, -60320.74, -0.03, -0.03, -0.03
166, 18247.38, -7326.97, -39115.37, -41041.20, 0.00, 0.00, 0.00, -60450.38, 0.00, -0.03, 0.00
167, 18251.18, -7327.62, -39130.17, -41032.59, 0.00, 0.00, 0.00, -60383.04, 0.00, -0.03, -0.03
168, 18257.75, -7323.12, -39115.17, -41013.77, 0.00, 0.00, 0.00, -60244.34, -0.03, 0.00, 0.00
169, 18251.49, -7326.30, -39112.13, -41027.65, 0.00, 0.00, 0.00, -60307.60, -0.03, 0.00, -0.03
170, 18256.86, -7315.84, -39119.17, -41035.05, 0.00, 0.00, 0.00, -60449.62, 0.00, -0.03, 0.00
171, 18256.84, -7314.63, -39130.55, -41027.12, 0.00, 0.00, 0.00, -60411.53, -0.03, -0.03, -0.03
172, 18266.72, -7311.90, -39111.28, -41005.21, 0.00, 0.00, 0.00, -60249.64, -0.03, -0.03, 0.00
173, 18264.06, -7313.02, -39095.12, -41010.13, 0.00, 0.00, 0.00, -60259.07, 0.00, -0.03, 0.00
174, 18253.73, -7318.50, -39109.56, -41032.23, 0.00, 0.00, 0.00, -60416.14, -0.03, 0.00, -0.03
175, 18258.38, -7311.32, -39121.74, -41029.57, 0.00, 0.00, 0.00, -60417.93, 0.00, -0.03, -0.03
176, 18273.67, -7302.72, -39111.06, -41011.67, 0.00, 0.00, 0.00, -60263.92, 0.00, -0.03, -0.03
177, 18283.23, -7300.84, -39094.25, -41013.19, 0.00, 0.00, 0.00, -60239.36, -0.03, 0.00, 0.00
178, 18272.86, -7301.22, -39098.61, -41027.50, 0.00, 0.00, 0.00, -60387.35, 0.00, 0.00, -0.03
179, 18257.89, -7309.51, -39120.83, -41034.74, 0.00, 0.00, 0.00, -60434.44, 0.00, -0.03, 0.00
180, 18260.28, -7312.57, -39123.53, -41023.52, 0.00, 0.00, 0.00, -60299.39, -0.03, -0.03, -0.03
181, 18263.88, -7310.23, -39099.70, -41012.84, 0.00, 0.00, 0.00, -60232.50, -0.03, -0.03, 0.00
182, 18258.38, -7311.41, -39096.69, -41023.16, 0.00, 0.00, 0.00, -60363.03, 0.00, -0.03, 0.00
183, 18258.80, -7311.52, -39117.36, -41030.78, 0.00, 0.00, 0.00, -60443.72, -0.03, -0.03, -0.03
184, 18264.79, -7307.43, -39117.70, -41014.02, 0.00, 0.00, 0.00, -60320.02, 0.00, -0.03, -0.03
185, 18262.67, -7310.43, -39092.71, -41001.88, 0.00, 0.00, 0.00, -60214.82, -0.03, -0.03, 0.00
186, 18248.81, -7323.01, -39095.90, -41022.76, 0.00, 0.00, 0.00, -60332.48, 0.00, -0.03, -0.03
187, 18243.18, -7326.14, -39119.75, -41037.27, 0.00, 0.00, 0.00, -60450.45, 0.00, -0.03, 0.00
188, 18245.46, -7324.53, -39131.82, -41028.84, 0.00, 0.00, 0.00, -60362.54, 0.00, 0.00, 0.00
189, 18251.58, -7325.27, -39114.08, -41017.04, 0.00, 0.00, 0.00, -60239.67, -0.03, -0.03, -0.03
190, 18244.21, -7333.56, -39105.88, -41028.70, 0.00, 0.00, 0.00, -60321.59, -0.03, -0.03, -0.03
191, 18233.19, -7335.89, -39125.03, -41044.30, 0.00, 0.00, 0.00, -60461.73, 0.00, -0.03, 0.00
192, 18238.82, -7330.23, -39132.79, -41035.19, 0.00, 0.00, 0.00, -60399.06, 0.00, 0.00, 0.00
193, 18244.74, -7328.69, -39113.16, -41018.89, 0.00, 0.00, 0.00, -60249.21, -0.03, 0.00, 0.00
194, 18241.15, -7338.68, -39099.88, -41027.90, 0.00, 0.00, 0.00, -60289.47, -0.03, -0.03, -0.03
195, 18227.31, -7348.74, -39117.25, -41049.89, 0.00, 0.00, 0.00, -60442.63, 0.00, -0.03, -0.03
196, 18239.67, -7330.08, -39118.26, -41031.92, 0.00, 0.00, 0.00, -60405.50, 0.00, -0.03, -0.03
197, 18247.47, -7329.61, -39100.17, -41007.94, 0.00, 0.00, 0.00, -60245.14, -0.03, -0.03, 0.00
198, 18232.23, -7343.64, -39084.75, -41016.10, 0.00, 0.00, 0.00, -60250.64, -0.03, -0.03, 0.00
199, 18217.19, -7350.01, -39101.00, -41040.28, 0.00, 0.00, 0.00, -60412.23, -0.03, 0.00, -0.03
200, 18226.08, -7344.11, -39119.93, -41040.55, 0.00, 0.00, 0.00, -60432.99, -0.03, -0.03, 0.00
201, 18236.50, -7340.45, -39111.13, -41018.64, 0.00, 0.00, 0.00, -60278.36, 0.00, -0.03, 0.00
202, 18226.51, -7350.24, -39092.02, -41013.53, 0.00, 0.00, 0.00, -60235.73, 0.00, 0.00, 0.00
203, 18211.37, -7358.13, -39104.64, -41033.60, 0.00, 0.00, 0.00, -60392.24, 0.00, -0.03, -0.03
204, 18201.03, -7363.96, -39135.38, -41045.58, 0.00, 0.00, 0.00, -60459.77, -0.03, 0.00, -0.03
205, 18223.42, -7360.05, -39131.06, -41017.75, 0.00, 0.00, 0.00, -60318.01, 0.00, 0.00, -0.03
206, 18220.56, -7366.73, -39110.43, -41006.40, 0.00, 0.00, 0.00, -60236.90, -0.03, 0.00, -0.03
207, 18201.58, -7374.87, -39116.40, -41028.95, 0.00, 0.00, 0.00, -60369.09, -0.03, -0.03, 0.00
208, 18192.53, -7378.18, -39138.82, -41040.57, 0.00, 0.00, 0.00, -60465.96, -0.03, 0.00, -0.03
209, 18196.46, -7381.84, -39145.32, -41025.75, 0.00, 0.00, 0.00, -60353.38, 0.00, -0.03, -0.03
210, 18196.91, -7383.76, -39124.80, -41011.72, 0.00, 0.00, 0.00, -60241.50, -0.03, -0.03, 0.00
211, 18188.08, -7386.76, -39118.08, -41027.90, 0.00, 0.00, 0.00, -60346.09, -0.03, 0.00, -0.03
212, 18178.43, -7391.21, -39136.07, -41044.60, 0.00, 0.00, 0.00, -60472.46, 0.00, -0.03, -0.03
213, 18182.09, -7393.31, -39141.90, -41034.88, 0.00, 0.00, 0.00, -60388.42, -0.03, -0.03, -0.03
214, 18194.34, -7387.83, -39117.25, -41015.43, 0.00, 0.00, 0.00, -60247.72, -0.03, 0.00, -0.03
215, 18185.78, -7390.38, -39109.54, -41034.76, 0.00, 0.00, 0.00, -60320.58, 0.00, 0.00, -0.03
216, 18174.72, -7393.49, -39128.98, -41055.73, 0.00, 0.00, 0.00, -60465.73, -0.03, -0.03, 0.00
217, 18187.41, -7383.54, -39134.71, -41041.47, 0.00, 0.00, 0.00, -60409.25, -0.03, -0.03, 0.00
218, 18199.64, -7381.19, -39112.73, -41023.25, 0.00, 0.00, 0.00, -60250.80, -0.03, -0.03, -0.03
219, 18196.73, -7386.85, -39102.99, -41032.50, 0.00, 0.00, 0.00, -60280.29, 0.00, -0.03, 0.00
220, 18183.21, -7391.63, -39120.36, -41051.68, 0.00, 0.00, 0.00, -60437.53, -0.03, -0.03, -0.03
221, 18188.91, -7385.22, -39128.70, -41040.24, 0.00, 0.00, 0.00, -60421.32, 0.00, 0.00, -0.03
222, 18203.55, -7378.24, -39111.82, -41014.51, 0.00, 0.00, 0.00, -60258.51, 0.00, -0.03, -0.03
223, 18199.15, -7386.07, -39101.67, -41024.48, 0.00, 0.00, 0.00, -60252.34, -0.03, -0.03, -0.03
224, 18190.38, -7389.73, -39109.49, -41045.00, 0.00, 0.00, 0.00, -60406.35, 0.00, -0.03, -0.03
225, 18189.60, -7386.94, -39127.04, -41042.07, 0.00, 0.00, 0.00, -60435.67, 0.00, -0.03, -0.03
226, 18189.42, -7393.40, -39122.68, -41026.09, 0.00, 0.00, 0.00, -60287.44, 0.00, 0.00, -0.03
227, 18186.21, -7402.83, -39107.26, -41025.95, 0.00, 0.00, 0.00, -60241.73, 0.00, -0.03, -0.03
228, 18178.25, -7399.84, -39113.47, -41046.16, 0.00, 0.00, 0.00, -60387.82, 0.00, -0.03, -0.03
229, 18180.15, -7394.52, -39132.00, -41049.98, 0.00, 0.00, 0.00, -60457.20, 0.00, -0.03, -0.03
230, 18186.52, -7394.09, -39126.14, -41029.89, 0.00, 0.00, 0.00, -60321.81, -0.03, 0.00, -0.03
231, 18190.27, -7391.23, -39100.00, -41016.12, 0.00, 0.00, 0.00, -60231.78, 0.00, -0.03, -0.03
232, 18179.63, -7400.57, -39104.09, -41038.74, 0.00, 0.00, 0.00, -60362.98, -0.03, 0.00, -0.03
233, 18163.85, -7414.27, -39131.33, -41062.54, 0.00, 0.00, 0.00, -60477.52, 0.00, 0.00, 0.00
234, 18176.97, -7402.36, -39128.49, -41045.22, 0.00, 0.00, 0.00, -60368.04, -0.03, 0.00, -0.03
235, 18184.60, -7397.58, -39106.92, -41031.70, 0.00, 0.00, 0.00, -60246.09, 0.00, -0.03, 0.00
236, 18173.98, -7408.49, -39105.40, -41048.89, 0.00, 0.00, 0.00, -60338.49, -0.03, -0.03, 0.00
237, 18163.23, -7413.13, -39132.52, -41070.03, 0.00, 0.00, 0.00, -60478.16, 0.00, -0.03, -0.03
238, 18173.22, -7402.29, -39135.98, -41052.60, 0.00, 0.00, 0.00, -60400.49, -0.03, 0.00, 0.00
239, 18173.60, -7407.55, -39116.69, -41036.95, 0.00, 0.00, 0.00, -60257.11, -0.03, -0.03, -0.03
240, 18170.92, -7414.01, -39105.05, -41046.34, 0.00, 0.00, 0.00, -60308.98, 0.00, 0.00, 0.00
241, 18164.05, -7414.95, -39124.40, -41066.10, 0.00, 0.00, 0.00, -60461.22, -0.03, -0.03, -0.03
242, 18167.43, -7410.65, -39133.19, -41057.29, 0.00, 0.00, 0.00, -60421.01, 0.00, 0.00, -0.03
243, 18171.34, -7411.23, -39117.03, -41031.34, 0.00, 0.00, 0.00, -60265.13, -0.03, -0.03, 0.00
244, 18171.16, -7414.77, -39105.61, -41037.06, 0.00, 0.00, 0.00, -60280.82, -0.03, -0.03, -0.03
245, 18165.91, -7413.67, -39119.17, -41056.96, 0.00, 0.00, 0.00, -60436.97, -0.03, -0.03, 0.00
246, 18165.96, -7413.16, -39138.98, -41055.04, 0.00, 0.00, 0.00, -60441.68, -0.03, -0.03, 0.00
247, 18173.89, -7410.99, -39128.11, -41030.00, 0.00, 0.00, 0.00, -60286.54, -0.03, 0.00, -0.03
248, 18169.24, -7413.16, -39110.66, -41029.64, 0.00, 0.00, 0.00, -60261.17, -0.03, -0.03, 0.00
249, 18152.48, -7424.40, -39124.40, -41054.43, 0.00, 0.00, 0.00, -60418.37, -0.03, -0.03, 0.00
250, 18154.38, -7423.93, -39140.77, -41055.19, 0.00, 0.00, 0.00, -60458.65, 0.00, -0.03, -0.03
251, 18165.17, -7419.24, -39136.50, -41035.05, 0.00, 0.00, 0.00, -60314.77, -0.03, -0.03, -0.03
252, 18171.77, -7413.34, -39112.67, -41026.43, 0.00, 0.00, 0.00, -60250.00, -0.03, 0.00, 0.00
253, 18157.91, -7419.26, -39118.17, -41049.51, 0.00, 0.00, 0.00, -60389.41, 0.00, -0.03, 0.00
254, 18155.88, -7417.96, -39140.34, -41059.19, 0.00, 0.00, 0.00, -60470.23, 0.00, -0.03, -0.03
255, 18163.63, -7416.31, -39139.22, -41043.37, 0.00, 0.00, 0.00, -60345.02, -0.03, 0.00, -0.03
0, 18161.15, -7424.40, -39121.61, -41041.40, 0.00, 0.00, 0.00, -60251.50, -0.03, -0.03, 0.00
1, 18153.21, -7429.52, -39124.54, -41057.85, 0.00, 0.00, 0.00, -60372.33, 0.00, -0.03, -0.03
2, 18143.80, -7432.94, -39146.55, -41070.12, 0.00, 0.00, 0.00, -60490.73, -0.03, -0.03, -0.03
3, 18147.74, -7428.89, -39142.95, -41050.41, 0.00, 0.00, 0.00, -60388.58, -0.03, -0.03, -0.03
4, 18153.01, -7431.33, -39123.46, -41037.29, 0.00, 0.00, 0.00, -60260.01, 0.00, -0.03, -0.03
5, 18149.48, -7434.01, -39118.39, -41051.01, 0.00, 0.00, 0.00, -60343.49, -0.03, -0.03, 0.00
6, 18143.27, -7430.97, -39132.47, -41062.21, 0.00, 0.00, 0.00, -60476.35, -0.03, -0.03, -0.03
7, 18154.38, -7425.05, -39140.16, -41044.98, 0.00, 0.00, 0.00, -60411.36, -0.03, 0.00, 0.00
8, 18162.67, -7421.05, -39122.19, -41023.88, 0.00, 0.00, 0.00, -60260.99, 0.00, -0.03, -0.03
9, 18156.75, -7426.19, -39112.98, -41037.20, 0.00, 0.00, 0.00, -60305.81, 0.00, 0.00, 0.00
10, 18153.57, -7419.55, -39125.95, -41051.39, 0.00, 0.00, 0.00, -60453.18, 0.00, -0.03, -0.03
11, 18160.28, -7410.07, -39134.39, -41034.79, 0.00, 0.00, 0.00, -60421.14, 0.00, 0.00, -0.03
12, 18162.33, -7415.15, -39116.96, -41013.82, 0.00, 0.00, 0.00, -60264.21, -0.03, -0.03, -0.03
13, 18154.49, -7425.09, -39101.40, -41019.45, 0.00, 0.00, 0.00, -60267.03, -0.03, -0.03, 0.00
14, 18149.24, -7421.58, -39112.55, -41043.75, 0.00, 0.00, 0.00, -60419.91, -0.03, -0.03, -0.03
15, 18156.46, -7412.71, -39122.61, -41037.67, 0.00, 0.00, 0.00, -60426.40, -0.03, 0.00, -0.03
16, 18160.75, -7414.70, -39108.38, -41013.15, 0.00, 0.00, 0.00, -60270.49, 0.00, -0.03, -0.03
17, 18159.25, -7421.05, -39090.34, -41015.88, 0.00, 0.00, 0.00, -60233.23, -0.03, -0.03, -0.03
18, 18147.02, -7427.19, -39104.71, -41041.69, 0.00, 0.00, 0.00, -60391.75, -0.03, -0.03, -0.03
19, 18140.65, -7429.63, -39127.78, -41045.89, 0.00, 0.00, 0.00, -60450.20, -0.03, -0.03, 0.00
20, 18149.04, -7426.23, -39118.28, -41023.94, 0.00, 0.00, 0.00, -60306.70, -0.03, 0.00, 0.00
21, 18144.72, -7431.89, -39099.70, -41020.41, 0.00, 0.00, 0.00, -60230.86, -0.03, 0.00, 0.00
22, 18136.74, -7439.96, -39109.58, -41042.99, 0.00, 0.00, 0.00, -60368.13, -0.03, 0.00, 0.00
23, 18134.91, -7436.43, -39130.71, -41050.68, 0.00, 0.00, 0.00, -60460.44, -0.03, 0.00, 0.00
24, 18137.08, -7434.06, -39131.42, -41032.30, 0.00, 0.00, 0.00, -60345.15, -0.03, 0.00, 0.00
25, 18145.32, -7434.12, -39107.10, -41018.18, 0.00, 0.00, 0.00, -60233.73, -0.03, -0.03, 0.00
26, 18126.73, -7449.14, -39112.15, -41045.04, 0.00, 0.00, 0.00, -60344.39, 0.00, 0.00, -0.03
27, 18117.45, -7454.06, -39135.80, -41066.23, 0.00, 0.00, 0.00, -60472.55, -0.03, -0.03, 0.00
28, 18127.67, -7449.88, -39139.76, -41052.33, 0.00, 0.00, 0.00, -60383.95, -0.03, -0.03, -0.03
29, 18129.03, -7450.86, -39122.14, -41035.99, 0.00, 0.00, 0.00, -60249.15, 0.00, 0.00, -0.03
30, 18133.21, -7447.38, -39111.15, -41043.61, 0.00, 0.00, 0.00, -60317.81, 0.00, -0.03, -0.03
31, 18129.61, -7447.73, -39132.98, -41061.29, 0.00, 0.00, 0.00, -60466.81, -0.03, 0.00, 0.00
32, 18139.87, -7437.41, -39137.93, -41041.47, 0.00, 0.00, 0.00, -60405.32, -0.03, -0.03, -0.03
33, 18153.06, -7428.02, -39116.49, -41014.31, 0.00, 0.00, 0.00, -60243.74, 0.00, -0.03, 0.00
34, 18145.44, -7433.05, -39105.49, -41025.53, 0.00, 0.00, 0.00, -60274.02, -0.03, -0.03, 0.00
35, 18136.47, -7434.84, -39121.00, -41047.86, 0.00, 0.00, 0.00, -60433.68, -0.03, 0.00, -0.03
36, 18143.49, -7428.65, -39130.88, -41039.61, 0.00, 0.00, 0.00, -60415.40, -0.03, -0.03, -0.03
37, 18147.52, -7423.48, -39116.27, -41014.85, 0.00, 0.00, 0.00, -60254.51, 0.00, 0.00, -0.03
38, 18148.77, -7425.34, -39098.65, -41016.61, 0.00, 0.00, 0.00, -60242.20, -0.03, 0.00, -0.03
39, 18139.42, -7434.55, -39113.56, -41044.71, 0.00, 0.00, 0.00, -60403.33, 0.00, -0.03, -0.03
40, 18138.95, -7429.41, -39129.52, -41046.54, 0.00, 0.00, 0.00, -60433.84, -0.03, -0.03, -0.03
41, 18149.33, -7424.85, -39117.25, -41021.75, 0.00, 0.00, 0.00, -60282.25, -0.03, 0.00, -0.03
42, 18146.46, -7430.03, -39099.55, -41016.07, 0.00, 0.00, 0.00, -60233.64, -0.03, 0.00, 0.00
43, 18135.51, -7437.41, -39110.21, -41038.11, 0.00, 0.00, 0.00, -60384.33, 0.00, -0.03, -0.03
44, 18139.07, -7435.17, -39130.97, -41044.02, 0.00, 0.00, 0.00, -60454.23, -0.03, -0.03, 0.00
45, 18150.44, -7427.80, -39130.91, -41024.55, 0.00, 0.00, 0.00, -60325.41, -0.03, 0.00, -0.03
46, 18149.97, -7431.91, -39116.38, -41018.82, 0.00, 0.00, 0.00, -60243.40, 0.00, 0.00, 0.00
47, 18136.76, -7438.68, -39121.70, -41041.31, 0.00, 0.00, 0.00, -60372.20, -0.03, -0.03, 0.00
48, 18123.44, -7444.16, -39149.86, -41063.48, 0.00, 0.00, 0.00, -60484.87, -0.03, -0.03, -0.03
49, 18128.18, -7445.25, -39153.97, -41051.30, 0.00, 0.00, 0.00, -60382.36, -0.03, 0.00, -0.03
50, 18138.57, -7439.11, -39124.98, -41031.52, 0.00, 0.00, 0.00, -60257.86, -0.03, -0.03, -0.03
51, 18131.64, -7444.40, -39118.66, -41046.74, 0.00, 0.00, 0.00, -60350.13, -0.03, 0.00, -0.03
52, 18125.45, -7445.90, -39140.52, -41060.96, 0.00, 0.00, 0.00, -60481.52, 0.00, -0.03, -0.03
53, 18142.93, -7436.74, -39140.74, -41040.46, 0.00, 0.00, 0.00, -60398.14, -0.03, -0.03, 0.00
54, 18147.29, -7436.36, -39121.79, -41025.60, 0.00, 0.00, 0.00, -60256.84, -0.03, 0.00, -0.03
55, 18139.94, -7441.05, -39111.35, -41036.32, 0.00, 0.00, 0.00, -60315.71, -0.03, -0.03, 0.00
56, 18133.84, -7440.81, -39129.66, -41053.02, 0.00, 0.00, 0.00, -60464.53, -0.03, -0.03, 0.00
57, 18140.27, -7433.09, -39135.29, -41036.66, 0.00, 0.00, 0.00, -60415.33, -0.03, -0.03, 0.00
58, 18158.47, -7420.47, -39107.97, -41001.91, 0.00, 0.00, 0.00, -60245.37, -0.03, -0.03, 0.00
59, 18160.08, -7418.79, -39092.84, -41004.63, 0.00, 0.00, 0.00, -60259.45, 0.00, -0.03, 0.00
60, 18145.97, -7424.96, -39108.49, -41029.22, 0.00, 0.00, 0.00, -60419.07, 0.00, -0.03, 0.00
61, 18145.37, -7423.60, -39123.08, -41028.23, 0.00, 0.00, 0.00, -60422.60, -0.03, -0.03, 0.00
62, 18150.26, -7421.92, -39112.91, -41010.62, 0.00, 0.00, 0.00, -60271.01, -0.03, -0.03, -0.03
63, 18154.89, -7420.87, -39090.61, -41007.54, 0.00, 0.00, 0.00, -60244.16, -0.03, 0.00, 0.00
64, 18142.71, -7427.91, -39105.89, -41033.98, 0.00, 0.00, 0.00, -60399.78, 0.00, -0.03, 0.00
65, 18144.34, -7425.29, -39125.21, -41037.71, 0.00, 0.00, 0.00, -60442.96, 0.00, -0.03, -0.03
66, 18157.95, -7421.58, -39116.71, -41012.59, 0.00, 0.00, 0.00, -60297.20, 0.00, 0.00, 0.00
67, 18155.61, -7422.84, -39098.39, -41006.15, 0.00, 0.00, 0.00, -60234.13, 0.00, -0.03, 0.00
68, 18144.86, -7429.79, -39109.00, -41029.06, 0.00, 0.00, 0.00, -60378.63, 0.00, -0.03, 0.00
69, 18138.98, -7436.85, -39137.95, -41047.41, 0.00, 0.00, 0.00, -60470.09, 0.00, -0.03, 0.00
70, 18146.42, -7434.84, -39139.16, -41033.89, 0.00, 0.00, 0.00, -60344.03, -0.03, -0.03, -0.03
71, 18149.93, -7436.43, -39112.51, -41020.97, 0.00, 0.00, 0.00, -60241.61, -0.03, -0.03, -0.03
72, 18137.81, -7444.40, -39115.98, -41037.29, 0.00, 0.00, 0.00, -60362.63, -0.03, 0.00, -0.03
73, 18130.21, -7445.12, -39141.08, -41051.23, 0.00, 0.00, 0.00, -60481.07, -0.03, -0.03, 0.00
74, 18144.68, -7430.57, -39136.16, -41028.91, 0.00, 0.00, 0.00, -60372.77, -0.03, -0.03, -0.03
75, 18159.18, -7425.09, -39106.66, -41005.32, 0.00, 0.00, 0.00, -60235.31, 0.00, -0.03, 0.00
76, 18145.19, -7438.59, -39101.45, -41024.75, 0.00, 0.00, 0.00, -60321.30, -0.03, -0.03, 0.00
77, 18132.29, -7442.57, -39121.36, -41046.21, 0.00, 0.00, 0.00, -60459.93, 0.00, -0.03, -0.03
78, 18150.13, -7427.06, -39124.00, -41027.03, 0.00, 0.00, 0.00, -60388.96, 0.00, -0.03, 0.00
79, 18156.63, -7423.66, -39104.96, -41010.02, 0.00, 0.00, 0.00, -60242.22, 0.00, -0.03, -0.03
80, 18148.92, -7428.94, -39091.14, -41021.08, 0.00, 0.00, 0.00, -60283.55, -0.03, -0.03, -0.03
81, 18141.44, -7432.33, -39107.64, -41042.38, 0.00, 0.00, 0.00, -60436.86, 0.00, -0.03, -0.03
82, 18145.06, -7432.98, -39124.56, -41036.62, 0.00, 0.00, 0.00, -60415.42, -0.03, 0.00, -0.03
83, 18153.82, -7430.59, -39111.73, -41014.71, 0.00, 0.00, 0.00, -60262.18, -0.03, -0.03, -0.03
84, 18148.68, -7431.15, -39094.50, -41015.92, 0.00, 0.00, 0.00, -60265.60, -0.03, -0.03, -0.03
85, 18147.92, -7429.76, -39107.95, -41035.92, 0.00, 0.00, 0.00, -60421.86, -0.03, 0.00, 0.00
86, 18147.72, -7427.02, -39129.68, -41035.28, 0.00, 0.00, 0.00, -60439.11, 0.00, -0.03, -0.03
87, 18157.55, -7423.39, -39122.97, -41011.45, 0.00, 0.00, 0.00, -60284.78, -0.03, -0.03, -0.03
88, 18159.63, -7424.98, -39102.43, -41008.88, 0.00, 0.00, 0.00, -60247.38, -0.03, -0.03, 0.00
89, 18146.08, -7431.42, -39111.02, -41030.63, 0.00, 0.00, 0.00, -60399.04, 0.00, -0.03, -0.03
90, 18135.15, -7437.92, -39138.55, -41041.24, 0.00, 0.00, 0.00, -60459.25, -0.03, -0.03, -0.03
91, 18153.82, -7425.85, -39126.08, -41012.41, 0.00, 0.00, 0.00, -60309.34, -0.03, -0.03, 0.00
92, 18159.29, -7425.16, -39104.58, -41005.37, 0.00, 0.00, 0.00, -60234.80, -0.03, -0.03, -0.03
93, 18148.41, -7429.63, -39110.50, -41032.68, 0.00, 0.00, 0.00, -60372.44, -0.03, 0.00, -0.03
94, 18141.08, -7428.49, -39132.14, -41049.40, 0.00, 0.00, 0.00, -60469.36, 0.00, 0.00, 0.00
95, 18150.71, -7427.13, -39132.81, -41033.24, 0.00, 0.00, 0.00, -60352.32, 0.00, -0.03, 0.00
96, 18161.11, -7422.28, -39106.41, -41018.24, 0.00, 0.00, 0.00, -60240.23, -0.03, -0.03, -0.03
97, 18153.33, -7427.06, -39102.23, -41038.38, 0.00, 0.00, 0.00, -60346.40, -0.03, -0.03, 0.00
98, 18146.22, -7427.69, -39124.20, -41054.54, 0.00, 0.00, 0.00, -60468.20, 0.00, -0.03, 0.00
99, 18150.24, -7425.90, -39131.13, -41038.98, 0.00, 0.00, 0.00, -60380.26, -0.03, -0.03, -0.03
100, 18160.37, -7423.39, -39109.89, -41020.10, 0.00, 0.00, 0.00, -60242.38, -0.03, -0.03, -0.03
101, 18157.60, -7426.39, -39101.18, -41029.89, 0.00, 0.00, 0.00, -60309.25, -0.03, -0.03, -0.03
102, 18145.37, -7427.80, -39123.66, -41050.30, 0.00, 0.00, 0.00, -60457.27, 0.00, -0.03, 0.00
103, 18155.63, -7418.88, -39129.90, -41033.64, 0.00, 0.00, 0.00, -60401.63, -0.03, -0.03, -0.03
104, 18166.85, -7414.61, -39107.57, -41009.79, 0.00, 0.00, 0.00, -60242.42, 0.00, 0.00, 0.00
105, 18164.23, -7418.52, -39088.64, -41006.75, 0.00, 0.00, 0.00, -60266.29, 0.00, -0.03, -0.03
106, 18152.72, -7425.83, -39109.85, -41029.66, 0.00, 0.00, 0.00, -60427.65, -0.03, -0.03, 0.00
107, 18159.96, -7417.94, -39123.69, -41020.95, 0.00, 0.00, 0.00, -60408.94, -0.03, -0.03, -0.03
108, 18181.62, -7406.34, -39103.50, -40991.11, 0.00, 0.00, 0.00, -60245.37, 0.00, -0.03, -0.03
109, 18172.62, -7419.48, -39095.82, -41001.14, 0.00, 0.00, 0.00, -60247.20, -0.03, -0.03, -0.03
110, 18163.38, -7423.91, -39105.88, -41021.42, 0.00, 0.00, 0.00, -60402.19, 0.00, -0.03, -0.03
111, 18169.26, -7413.65, -39117.47, -41016.16, 0.00, 0.00, 0.00, -60422.08, -0.03, -0.03, 0.00
112, 18176.93, -7407.41, -39103.79, -40991.51, 0.00, 0.00, 0.00, -60264.26, -0.03, 0.00, -0.03
113, 18179.77, -7412.20, -39083.30, -40989.03, 0.00, 0.00, 0.00, -60215.71, 0.00, -0.03, 0.00
114, 18166.31, -7419.59, -39094.41, -41011.61, 0.00, 0.00, 0.00, -60366.63, -0.03, 0.00, 0.00
115, 18163.38, -7417.02, -39119.78, -41016.95, 0.00, 0.00, 0.00, -60439.56, -0.03, -0.03, 0.00
116, 18175.83, -7412.60, -39115.98, -40995.98, 0.00, 0.00, 0.00, -60303.80, -0.03, 0.00, 0.00
117, 18175.41, -7416.02, -39098.39, -40993.03, 0.00, 0.00, 0.00, -60222.14, -0.03, 0.00, 0.00
118, 18161.95, -7426.95, -39106.77, -41025.78, 0.00, 0.00, 0.00, -60358.96, -0.03, 0.00, 0.00
119, 18154.60, -7430.50, -39134.53, -41050.90, 0.00, 0.00, 0.00, -60470.96, -0.03, 0.00, -0.03
120, 18163.09, -7427.19, -39140.32, -41041.29, 0.00, 0.00, 0.00, -60368.24, 0.00, -0.03, -0.03
121, 18167.36, -7425.79, -39119.48, -41029.80, 0.00, 0.00, 0.00, -60251.18, -0.03, -0.03, -0.03
122, 18161.44, -7426.66, -39113.61, -41045.76, 0.00, 0.00, 0.00, -60344.84, 0.00, 0.00, 0.00
123, 18148.07, -7433.03, -39134.68, -41064.87, 0.00, 0.00, 0.00, -60477.92, 0.00, 0.00, -0.03
124, 18158.47, -7423.19, -39132.02, -41040.62, 0.00, 0.00, 0.00, -60387.91, -0.03, -0.03, -0.03
125, 18163.88, -7423.24, -39111.59, -41019.43, 0.00, 0.00, 0.00, -60242.13, 0.00, -0.03, -0.03
126, 18162.54, -7425.83, -39101.65, -41027.54, 0.00, 0.00, 0.00, -60301.47, -0.03, -0.03, 0.00
127, 18153.93, -7428.09, -39122.95, -41047.95, 0.00, 0.00, 0.00, -60451.01, 0.00, 0.00, -0.03
128, 18163.54, -7419.15, -39133.75, -41032.30, 0.00, 0.00, 0.00, -60406.62, -0.03, 0.00, -0.03
129, 18176.08, -7409.76, -39113.96, -41004.14, 0.00, 0.00, 0.00, -60247.54, 0.00, -0.03, 0.00
130, 18173.89, -7407.41, -39099.57, -41007.56, 0.00, 0.00, 0.00, -60263.90, -0.03, -0.03, -0.03
131, 18166.20, -7410.09, -39118.61, -41031.88, 0.00, 0.00, 0.00, -60423.54, 0.00, -0.03, 0.00
132, 18176.95, -7401.04, -39130.53, -41022.36, 0.00, 0.00, 0.00, -60419.82, -0.03, -0.03, 0.00
133, 18181.80, -7398.63, -39117.94, -40997.95, 0.00, 0.00, 0.00, -60262.49, -0.03, -0.03, 0.00
134, 18174.27, -7406.16, -39103.13, -41000.74, 0.00, 0.00, 0.00, -60239.94, -0.03, -0.03, -0.03
135, 18172.66, -7403.05, -39111.44, -41012.23, 0.00, 0.00, 0.00, -60390.75, 0.00, -0.03, -0.03
136, 18174.49, -7399.90, -39129.61, -41010.18, 0.00, 0.00, 0.00, -60429.53, 0.00, 0.00, 0.00
137, 18180.97, -7402.38, -39122.75, -40992.05, 0.00, 0.00, 0.00, -60283.30, -0.03, -0.03, -0.03
138, 18178.58, -7405.60, -39103.32, -40990.84, 0.00, 0.00, 0.00, -60223.62, -0.03, -0.03, -0.03
139, 18166.00, -7409.33, -39109.67, -41015.72, 0.00, 0.00, 0.00, -60368.84, -0.03, -0.03, -0.03
140, 18170.65, -7406.07, -39131.36, -41030.22, 0.00, 0.00, 0.00, -60450.65, -0.03, 0.00, -0.03
141, 18182.05, -7403.55, -39129.75, -41016.77, 0.00, 0.00, 0.00, -60325.86, 0.00, -0.03, -0.03
142, 18182.76, -7407.12, -39110.79, -41012.52, 0.00, 0.00, 0.00, -60229.88, -0.03, 0.00, -0.03
143, 18171.43, -7413.27, -39112.55, -41037.71, 0.00, 0.00, 0.00, -60348.97, -0.03, -0.03, -0.03
144, 18165.26, -7415.08, -39135.09, -41053.31, 0.00, 0.00, 0.00, -60461.42, 0.00, -0.03, -0.03
145, 18175.25, -7407.46, -39132.27, -41028.21, 0.00, 0.00, 0.00, -60354.78, 0.00, 0.00, -0.03
146, 18180.06, -7405.02, -39113.00, -41010.13, 0.00, 0.00, 0.00, -60225.23, 0.00, -0.03, -0.03
147, 18172.71, -7406.18, -39108.93, -41024.21, 0.00, 0.00, 0.00, -60308.38, 0.00, -0.03, 0.00
148, 18171.56, -7408.57, -39129.03, -41043.66, 0.00, 0.00, 0.00, -60445.46, -0.03, 0.00, 0.00
149, 18178.74, -7404.95, -39141.05, -41035.99, 0.00, 0.00, 0.00, -60386.05, -0.03, -0.03, -0.03
150, 18186.12, -7401.15, -39122.59, -41014.93, 0.00, 0.00, 0.00, -60240.25, 0.00, -0.03, 0.00
151, 18177.53, -7406.23, -39113.81, -41022.22, 0.00, 0.00, 0.00, -60289.63, -0.03, -0.03, -0.03
152, 18172.59, -7407.28, -39126.21, -41035.92, 0.00, 0.00, 0.00, -60438.76, -0.03, 0.00, -0.03
153, 18178.92, -7405.13, -39136.70, -41029.44, 0.00, 0.00, 0.00, -60408.54, -0.03, -0.03, 0.00
154, 18186.27, -7401.47, -39121.90, -41007.56, 0.00, 0.00, 0.00, -60250.18, 0.00, -0.03, -0.03
155, 18178.25, -7407.28, -39107.84, -41012.90, 0.00, 0.00, 0.00, -60252.61, -0.03, -0.03, -0.03
156, 18175.39, -7401.04, -39113.29, -41028.39, 0.00, 0.00, 0.00, -60403.71, -0.03, 0.00, 0.00
157, 18179.50, -7398.52, -39123.96, -41022.13, 0.00, 0.00, 0.00, -60411.67, -0.03, -0.03, -0.03
158, 18186.63, -7395.92, -39114.41, -40998.39, 0.00, 0.00, 0.00, -60259.25, 0.00, -0.03, 0.00
159, 18192.75, -7394.27, -39097.98, -40996.12, 0.00, 0.00, 0.00, -60228.32, 0.00, -0.03, 0.00
160, 18187.05, -7392.68, -39106.23, -41016.54, 0.00, 0.00, 0.00, -60381.98, 0.00, -0.03, -0.03
161, 18179.88, -7394.11, -39131.18, -41023.56, 0.00, 0.00, 0.00, -60443.00, -0.03, -0.03, -0.03
162, 18189.58, -7387.45, -39121.95, -40994.59, 0.00, 0.00, 0.00, -60298.81, -0.03, -0.03, -0.03
163, 18185.83, -7393.67, -39101.52, -40989.05, 0.00, 0.00, 0.00, -60223.78, 0.00, 0.00, 0.00
164, 18174.85, -7404.51, -39110.14, -41021.73, 0.00, 0.00, 0.00, -60365.02, -0.03, 0.00, -0.03
165, 18170.87, -7407.97, -39131.91, -41040.30, 0.00, 0.00, 0.00, -60460.02, -0.03, 0.00, -0.03
166, 18178.07, -7407.57, -39129.39, -41025.64, 0.00, 0.00, 0.00, -60341.35, 0.00, -0.03, 0.00
167, 18181.20, -7407.79, -39108.89, -41019.85, 0.00, 0.00, 0.00, -60234.75, -0.03, 0.00, 0.00
168, 18176.13, -7411.10, -39108.64, -41038.79, 0.00, 0.00, 0.00, -60340.59, -0.03, -0.03, -0.03
169, 18173.06, -7408.35, -39129.45, -41053.22, 0.00, 0.00, 0.00, -60461.96, -0.03, 0.00, -0.03
170, 18179.68, -7408.02, -39136.05, -41040.66, 0.00, 0.00, 0.00, -60378.36, 0.00, -0.03, 0.00
171, 18180.15, -7410.77, -39118.52, -41025.13, 0.00, 0.00, 0.00, -60243.52, 0.00, 0.00, 0.00
172, 18170.80, -7418.75, -39117.43, -41040.68, 0.00, 0.00, 0.00, -60320.25, 0.00, -0.03, -0.03
173, 18174.40, -7412.55, -39131.40, -41054.61, 0.00, 0.00, 0.00, -60462.27, 0.00, -0.03, -0.03
174, 18175.34, -7414.16, -39144.18, -41047.73, 0.00, 0.00, 0.00, -60409.86, -0.03, -0.03, -0.03
175, 18183.37, -7409.83, -39124.11, -41025.22, 0.00, 0.00, 0.00, -60256.52, 0.00, -0.03, -0.03
176, 18183.32, -7409.83, -39106.97, -41026.45, 0.00, 0.00, 0.00, -60286.50, 0.00, 0.00, -0.03
177, 18171.03, -7415.35, -39121.63, -41042.47, 0.00, 0.00, 0.00, -60435.83, -0.03, -0.03, -0.03
178, 18181.45, -7404.82, -39130.64, -41028.88, 0.00, 0.00, 0.00, -60412.43, -0.03, -0.03, 0.00
179, 18197.40, -7398.92, -39113.18, -41001.03, 0.00, 0.00, 0.00, -60251.61, -0.03, -0.03, -0.03
180, 18195.73, -7401.91, -39095.68, -41000.96, 0.00, 0.00, 0.00, -60247.18, 0.00, -0.03, -0.03
181, 18185.15, -7408.22, -39112.29, -41027.30, 0.00, 0.00, 0.00, -60407.26, -0.03, -0.03, -0.03
182, 18184.71, -7406.18, -39132.89, -41030.80, 0.00, 0.00, 0.00, -60436.37, -0.03, 0.00, 0.00
183, 18195.44, -7401.24, -39120.20, -41007.71, 0.00, 0.00, 0.00, -60282.18, -0.03, 0.00, -0.03
184, 18194.34, -7406.38, -39102.63, -41008.10, 0.00, 0.00, 0.00, -60238.20, -0.03, 0.00, 0.00
185, 18181.76, -7411.84, -39109.81, -41031.18, 0.00, 0.00, 0.00, -60385.18, -0.03, -0.03, -0.03
186, 18183.99, -7406.97, -39128.07, -41035.81, 0.00, 0.00, 0.00, -60449.60, -0.03, -0.03, 0.00
187, 18189.04, -7404.62, -39128.94, -41016.84, 0.00, 0.00, 0.00, -60318.44, -0.03, 0.00, -0.03
188, 18190.90, -7403.93, -39108.58, -41006.80, 0.00, 0.00, 0.00, -60236.36, -0.03, -0.03, 0.00
189, 18185.78, -7408.62, -39115.26, -41034.27, 0.00, 0.00, 0.00, -60369.42, 0.00, 0.00, 0.00
190, 18175.46, -7412.24, -39141.84, -41055.14, 0.00, 0.00, 0.00, -60478.70, -0.03, 0.00, -0.03
191, 18179.50, -7412.24, -39142.13, -41039.75, 0.00, 0.00, 0.00, -60368.68, -0.03, -0.03, -0.03
192, 18180.91, -7417.60, -39119.91, -41026.00, 0.00, 0.00, 0.00, -60252.23, 0.00, 0.00, -0.03
193, 18169.58, -7425.61, -39118.43, -41047.91, 0.00, 0.00, 0.00, -60352.99, -0.03, 0.00, -0.03
194, 18161.31, -7426.93, -39141.73, -41069.59, 0.00, 0.00, 0.00, -60485.67, -0.03, 0.00, -0.03
195, 18169.53, -7416.04, -39144.68, -41050.27, 0.00, 0.00, 0.00, -60397.88, -0.03, -0.03, 0.00
196, 18186.38, -7410.27, -39122.68, -41025.20, 0.00, 0.00, 0.00, -60252.81, -0.03, 0.00, -0.03
197, 18187.14, -7412.67, -39113.52, -41030.16, 0.00, 0.00, 0.00, -60311.11, -0.03, -0.03, -0.03
198, 18180.35, -7415.26, -39134.89, -41051.41, 0.00, 0.00, 0.00, -60461.78, -0.03, 0.00, 0.00
199, 18182.32, -7414.79, -39149.39, -41047.52, 0.00, 0.00, 0.00, -60425.61, -0.03, 0.00, -0.03
200, 18189.76, -7410.97, -39125.90, -41021.33, 0.00, 0.00, 0.00, -60264.68, -0.03, 0.00, 0.00
201, 18182.38, -7414.19, -39111.37, -41024.75, 0.00, 0.00, 0.00, -60282.36, -0.03, -0.03, -0.03
202, 18179.43, -7413.43, -39124.07, -41040.89, 0.00, 0.00, 0.00, -60433.32, 0.00, -0.03, 0.00
203, 18182.34, -7409.98, -39137.84, -41033.29, 0.00, 0.00, 0.00, -60431.87, 0.00, 0.00, 0.00
204, 18190.38, -7408.42, -39122.97, -41010.64, 0.00, 0.00, 0.00, -60277.82, -0.03, -0.03, 0.00
205, 18184.84, -7415.28, -39110.95, -41018.73, 0.00, 0.00, 0.00, -60262.47, 0.00, -0.03, -0.03
206, 18178.90, -7415.06, -39120.43, -41041.64, 0.00, 0.00, 0.00, -60414.77, 0.00, -0.03, 0.00
207, 18183.77, -7409.74, -39135.33, -41039.07, 0.00, 0.00, 0.00, -60448.48, -0.03, -0.03, 0.00
208, 18190.77, -7407.99, -39129.75, -41016.88, 0.00, 0.00, 0.00, -60301.92, 0.00, -0.03, -0.03
209, 18191.37, -7413.74, -39109.00, -41010.58, 0.00, 0.00, 0.00, -60239.94, -0.03, 0.00, -0.03
210, 18189.27, -7407.57, -39107.71, -41025.08, 0.00, 0.00, 0.00, -60374.43, -0.03, 0.00, 0.00
211, 18178.07, -7415.03, -39139.56, -41043.61, 0.00, 0.00, 0.00, -60466.09, 0.00, 0.00, -0.03
212, 18182.79, -7414.12, -39137.93, -41027.00, 0.00, 0.00, 0.00, -60340.59, -0.03, -0.03, -0.03
213, 18189.76, -7407.26, -39112.24, -41015.25, 0.00, 0.00, 0.00, -60240.61, -0.03, 0.00, -0.03
214, 18189.07, -7406.97, -39109.61, -41037.00, 0.00, 0.00, 0.00, -60357.15, 0.00, -0.03, 0.00
215, 18179.25, -7414.27, -39136.96, -41059.82, 0.00, 0.00, 0.00, -60474.21, -0.03, -0.03, -0.03
216, 18182.58, -7414.45, -39145.39, -41048.87, 0.00, 0.00, 0.00, -60378.50, 0.00, 0.00, -0.03
217, 18191.79, -7406.16, -39122.75, -41028.61, 0.00, 0.00, 0.00, -60250.22, -0.03, 0.00, -0.03
218, 18185.09, -7410.21, -39116.33, -41043.14, 0.00, 0.00, 0.00, -60333.84, 0.00, -0.03, 0.00
219, 18181.80, -7409.45, -39134.73, -41062.14, 0.00, 0.00, 0.00, -60467.95, -0.03, 0.00, -0.03
220, 18185.63, -7406.18, -39142.29, -41048.29, 0.00, 0.00, 0.00, -60403.00, -0.03, 0.00, 0.00
221, 18197.92, -7400.44, -39122.35, -41022.58, 0.00, 0.00, 0.00, -60256.75, 0.00, -0.03, 0.00
222, 18193.85, -7404.04, -39114.90, -41031.27, 0.00, 0.00, 0.00, -60305.25, 0.00, 0.00, 0.00
223, 18181.94, -7410.34, -39134.42, -41051.30, 0.00, 0.00, 0.00, -60461.04, -0.03, 0.00, -0.03
224, 18187.64, -7405.11, -39149.28, -41043.57, 0.00, 0.00, 0.00, -60434.93, -0.03, -0.03, 0.00
225, 18196.80, -7400.01, -39132.27, -41018.63, 0.00, 0.00, 0.00, -60277.09, -0.03, -0.03, -0.03
226, 18193.49, -7406.38, -39117.18, -41023.96, 0.00, 0.00, 0.00, -60282.00, -0.03, -0.03, -0.03
227, 18187.64, -7406.14, -39125.39, -41042.81, 0.00, 0.00, 0.00, -60431.16, 0.00, -0.03, -0.03
228, 18190.27, -7399.97, -39141.08, -41039.50, 0.00, 0.00, 0.00, -60438.02, -0.03, 0.00, -0.03
229, 18195.79, -7396.39, -39131.29, -41012.36, 0.00, 0.00, 0.00, -60281.27, 0.00, -0.03, -0.03
230, 18200.47, -7391.92, -39108.22, -40997.28, 0.00, 0.00, 0.00, -60239.43, 0.00, 0.00, -0.03
231, 18193.16, -7401.42, -39121.90, -41021.64, 0.00, 0.00, 0.00, -60393.43, 0.00, -0.03, 0.00
232, 18191.93, -7397.44, -39143.91, -41028.75, 0.00, 0.00, 0.00, -60451.01, 0.00, 0.00, -0.03
233, 18202.12, -7387.74, -39137.30, -41007.05, 0.00, 0.00, 0.00, -60308.94, 0.00, 0.00, -0.03
234, 18205.45, -7388.61, -39115.86, -41005.08, 0.00, 0.00, 0.00, -60238.08, -0.03, -0.03, -0.03
235, 18193.63, -7398.11, -39125.52, -41034.72, 0.00, 0.00, 0.00, -60381.78, 0.00, -0.03, -0.03
236, 18191.93, -7395.39, -39146.11, -41046.41, 0.00, 0.00, 0.00, -60471.43, 0.00, -0.03, 0.00
237, 18202.21, -7390.63, -39144.74, -41030.63, 0.00, 0.00, 0.00, -60351.07, 0.00, -0.03, 0.00
238, 18208.04, -7390.98, -39122.84, -41019.70, 0.00, 0.00, 0.00, -60244.45, -0.03, -0.03, 0.00
239, 18196.96, -7393.60, -39120.78, -41038.61, 0.00, 0.00, 0.00, -60350.87, 0.00, -0.03, -0.03
240, 18189.00, -7398.85, -39139.09, -41061.32, 0.00, 0.00, 0.00, -60472.00, -0.03, -0.03, -0.03
241, 18196.62, -7396.30, -39139.22, -41043.43, 0.00, 0.00, 0.00, -60378.65, -0.03, -0.03, -0.03
242, 18205.36, -7391.81, -39118.05, -41022.40, 0.00, 0.00, 0.00, -60244.52, 0.00, -0.03, -0.03
243, 18202.77, -7389.02, -39108.73, -41033.09, 0.00, 0.00, 0.00, -60319.13, -0.03, 0.00, 0.00
