%OpenBCI Raw EEG Data
%
%Sample Rate = 250.0 Hz
%First Column = SampleIndex
%Other Columns = EEG data in microvolts followed by Accel Data (in G) interleaved with Aux Data
0, 18257.82, -7522.12, -39737.11, -41367.09, 0.00, 0.00, 0.00, -60574.03, 0.00, -0.03, 0.00
1, 18249.35, -7519.10, -39771.84, -41399.72, 0.00, 0.00, 0.00, -60844.11, -0.03, 0.00, -0.03
2, 18249.08, -7517.07, -39784.56, -41403.05, 0.00, 0.00, 0.00, -60848.09, -0.03, -0.03, -0.03
3, 18264.10, -7516.49, -39747.48, -41367.60, 0.00, 0.00, 0.00, -60576.69, -0.03, -0.03, -0.03
4, 18269.29, -7513.74, -39728.91, -41359.44, 0.00, 0.00, 0.00, -60535.43, -0.03, 0.00, 0.00
5, 18257.26, -7509.34, -39760.87, -41392.77, 0.00, 0.00, 0.00, -60802.26, 0.00, -0.03, 0.00
6, 18255.21, -7510.32, -39786.17, -41403.81, 0.00, 0.00, 0.00, -60881.19, -0.03, 0.00, 0.00
7, 18265.46, -7511.39, -39758.75, -41368.88, 0.00, 0.00, 0.00, -60627.29, 0.00, -0.03, -0.03
8, 18269.38, -7514.57, -39736.35, -41353.45, 0.00, 0.00, 0.00, -60518.71, -0.03, -0.03, -0.03
9, 18251.21, -7523.13, -39767.95, -41387.14, 0.00, 0.00, 0.00, -60768.13, 0.00, 0.00, -0.03
10, 18241.75, -7517.92, -39797.61, -41405.44, 0.00, 0.00, 0.00, -60910.20, 0.00, -0.03, -0.03
11, 18261.62, -7513.63, -39774.91, -41374.44, 0.00, 0.00, 0.00, -60687.69, 0.00, -0.03, 0.00
12, 18268.26, -7517.94, -39739.75, -41351.26, 0.00, 0.00, 0.00, -60515.02, -0.03, 0.00, -0.03
13, 18256.19, -7520.45, -39758.07, -41379.14, 0.00, 0.00, 0.00, -60717.71, 0.00, -0.03, 0.00
14, 18244.25, -7523.31, -39789.99, -41409.36, 0.00, 0.00, 0.00, -60918.87, -0.03, -0.03, -0.03
15, 18255.43, -7519.84, -39769.61, -41383.32, 0.00, 0.00, 0.00, -60738.83, -0.03, 0.00, -0.03
16, 18265.69, -7517.94, -39736.53, -41354.84, 0.00, 0.00, 0.00, -60522.98, -0.03, -0.03, 0.00
17, 18257.78, -7520.22, -39744.91, -41374.33, 0.00, 0.00, 0.00, -60664.96, -0.03, -0.03, -0.03
18, 18249.06, -7521.45, -39779.53, -41405.60, 0.00, 0.00, 0.00, -60902.62, -0.03, -0.03, 0.00
19, 18251.23, -7521.52, -39772.04, -41389.80, 0.00, 0.00, 0.00, -60785.72, 0.00, -0.03, 0.00
20, 18264.79, -7520.96, -39739.88, -41358.71, 0.00, 0.00, 0.00, -60534.94, 0.00, 0.00, -0.03
21, 18260.84, -7520.69, -39747.39, -41375.16, 0.00, 0.00, 0.00, -60620.43, 0.00, -0.03, -0.03
22, 18243.11, -7523.19, -39788.54, -41414.68, 0.00, 0.00, 0.00, -60890.75, -0.03, -0.03, 0.00
23, 18244.97, -7524.98, -39796.45, -41413.82, 0.00, 0.00, 0.00, -60850.05, -0.03, -0.03, 0.00
24, 18265.93, -7520.33, -39762.10, -41378.60, 0.00, 0.00, 0.00, -60580.63, -0.03, -0.03, -0.03
25, 18265.46, -7518.97, -39755.73, -41379.70, 0.00, 0.00, 0.00, -60589.39, 0.00, -0.03, 0.00
26, 18248.57, -7518.25, -39789.05, -41413.91, 0.00, 0.00, 0.00, -60859.51, -0.03, -0.03, 0.00
27, 18244.88, -7516.13, -39803.18, -41416.53, 0.00, 0.00, 0.00, -60886.51, -0.03, -0.03, 0.00
28, 18267.21, -7508.42, -39768.78, -41375.74, 0.00, 0.00, 0.00, -60617.77, -0.03, 0.00, 0.00
29, 18270.45, -7505.40, -39751.66, -41368.79, 0.00, 0.00, 0.00, -60555.55, -0.03, 0.00, 0.00
30, 18263.45, -7504.29, -39782.21, -41399.59, 0.00, 0.00, 0.00, -60811.74, 0.00, 0.00, 0.00
31, 18261.60, -7501.92, -39799.87, -41404.28, 0.00, 0.00, 0.00, -60900.45, 0.00, 0.00, -0.03
32, 18276.15, -7497.87, -39770.97, -41369.23, 0.00, 0.00, 0.00, -60651.08, -0.03, 0.00, -0.03
33, 18285.27, -7497.02, -39746.56, -41354.39, 0.00, 0.00, 0.00, -60524.03, -0.03, 0.00, -0.03
34, 18272.86, -7503.21, -39771.84, -41388.50, 0.00, 0.00, 0.00, -60756.60, 0.00, -0.03, 0.00
35, 18256.84, -7509.22, -39804.61, -41412.71, 0.00, 0.00, 0.00, -60918.80, 0.00, -0.03, 0.00
36, 18262.85, -7514.01, -39788.54, -41387.96, 0.00, 0.00, 0.00, -60710.46, -0.03, -0.03, 0.00
37, 18275.30, -7508.49, -39747.70, -41357.48, 0.00, 0.00, 0.00, -60518.78, 0.00, 0.00, -0.03
38, 18266.31, -7506.52, -39764.78, -41385.97, 0.00, 0.00, 0.00, -60706.55, 0.00, 0.00, -0.03
39, 18256.52, -7507.01, -39800.27, -41420.29, 0.00, 0.00, 0.00, -60921.62, -0.03, -0.03, -0.03
40, 18262.22, -7509.90, -39789.46, -41402.52, 0.00, 0.00, 0.00, -60766.39, -0.03, -0.03, -0.03
41, 18274.25, -7509.78, -39753.74, -41372.43, 0.00, 0.00, 0.00, -60533.08, -0.03, -0.03, 0.00
42, 18269.78, -7512.29, -39758.39, -41388.95, 0.00, 0.00, 0.00, -60659.88, -0.03, 0.00, 0.00
43, 18257.66, -7512.58, -39791.42, -41421.92, 0.00, 0.00, 0.00, -60911.12, -0.03, -0.03, 0.00
44, 18265.67, -7509.74, -39789.90, -41411.16, 0.00, 0.00, 0.00, -60817.35, 0.00, -0.03, 0.00
45, 18275.95, -7512.18, -39757.54, -41377.75, 0.00, 0.00, 0.00, -60557.16, -0.03, 0.00, -0.03
46, 18270.49, -7512.44, -39753.65, -41384.50, 0.00, 0.00, 0.00, -60613.61, -0.03, -0.03, 0.00
47, 18256.66, -7512.35, -39789.64, -41417.49, 0.00, 0.00, 0.00, -60883.56, 0.00, 0.00, 0.00
48, 18254.51, -7514.39, -39794.73, -41413.58, 0.00, 0.00, 0.00, -60857.23, -0.03, -0.03, -0.03
49, 18270.96, -7516.58, -39763.46, -41380.63, 0.00, 0.00, 0.00, -60587.13, -0.03, 0.00, -0.03
50, 18279.44, -7512.22, -39750.14, -41375.69, 0.00, 0.00, 0.00, -60572.22, -0.03, -0.03, -0.03
51, 18269.06, -7507.53, -39781.05, -41408.95, 0.00, 0.00, 0.00, -60839.97, -0.03, -0.03, 0.00
52, 18259.03, -7510.39, -39796.77, -41416.02, 0.00, 0.00, 0.00, -60885.28, -0.03, 0.00, 0.00
53, 18279.23, -7507.50, -39760.45, -41371.45, 0.00, 0.00, 0.00, -60614.24, 0.00, 0.00, 0.00
54, 18291.75, -7499.95, -39735.39, -41353.68, 0.00, 0.00, 0.00, -60525.04, -0.03, -0.03, -0.03
55, 18279.28, -7495.86, -39762.39, -41383.79, 0.00, 0.00, 0.00, -60776.05, -0.03, 0.00, -0.03
56, 18271.23, -7492.71, -39789.39, -41399.05, 0.00, 0.00, 0.00, -60898.80, 0.00, -0.03, -0.03
57, 18283.88, -7490.78, -39762.93, -41365.46, 0.00, 0.00, 0.00, -60659.93, -0.03, -0.03, 0.00
58, 18291.53, -7493.09, -39736.30, -41347.33, 0.00, 0.00, 0.00, -60498.14, 0.00, -0.03, -0.03
59, 18284.38, -7493.38, -39760.98, -41377.97, 0.00, 0.00, 0.00, -60718.07, -0.03, -0.03, -0.03
60, 18274.99, -7492.68, -39792.72, -41403.12, 0.00, 0.00, 0.00, -60910.58, -0.03, -0.03, -0.03
61, 18285.20, -7489.67, -39776.52, -41380.57, 0.00, 0.00, 0.00, -60718.22, -0.03, 0.00, 0.00
62, 18300.85, -7485.02, -39734.25, -41351.55, 0.00, 0.00, 0.00, -60493.23, 0.00, 0.00, -0.03
63, 18291.48, -7486.11, -39751.28, -41377.14, 0.00, 0.00, 0.00, -60662.48, 0.00, -0.03, -0.03
64, 18277.22, -7484.46, -39791.51, -41410.94, 0.00, 0.00, 0.00, -60905.82, -0.03, 0.00, 0.00
65, 18283.21, -7488.33, -39781.05, -41392.05, 0.00, 0.00, 0.00, -60769.09, -0.03, -0.03, 0.00
66, 18290.39, -7493.62, -39746.41, -41359.64, 0.00, 0.00, 0.00, -60515.18, -0.03, 0.00, -0.03
67, 18283.46, -7496.66, -39755.93, -41378.33, 0.00, 0.00, 0.00, -60624.12, 0.00, -0.03, -0.03
68, 18270.40, -7494.90, -39795.40, -41416.77, 0.00, 0.00, 0.00, -60900.52, 0.00, 0.00, 0.00
69, 18276.04, -7495.88, -39798.53, -41410.23, 0.00, 0.00, 0.00, -60835.95, 0.00, 0.00, -0.03
70, 18289.43, -7495.57, -39761.67, -41376.12, 0.00, 0.00, 0.00, -60556.82, -0.03, -0.03, 0.00
71, 18285.43, -7498.00, -39757.85, -41380.21, 0.00, 0.00, 0.00, -60586.43, -0.03, 0.00, 0.00
72, 18263.45, -7503.08, -39798.29, -41418.59, 0.00, 0.00, 0.00, -60882.21, -0.03, 0.00, -0.03
73, 18263.56, -7503.64, -39810.15, -41417.31, 0.00, 0.00, 0.00, -60891.27, -0.03, -0.03, 0.00
74, 18282.45, -7499.03, -39773.45, -41377.05, 0.00, 0.00, 0.00, -60602.71, 0.00, 0.00, 0.00
75, 18288.49, -7497.58, -39754.10, -41369.81, 0.00, 0.00, 0.00, -60549.46, -0.03, -0.03, -0.03
76, 18274.32, -7497.51, -39790.57, -41408.59, 0.00, 0.00, 0.00, -60833.71, 0.00, -0.03, -0.03
77, 18272.80, -7496.93, -39809.26, -41418.14, 0.00, 0.00, 0.00, -60917.11, -0.03, 0.00, -0.03
78, 18286.36, -7494.07, -39771.66, -41377.68, 0.00, 0.00, 0.00, -60641.33, 0.00, -0.03, 0.00
79, 18291.88, -7493.27, -39742.32, -41354.35, 0.00, 0.00, 0.00, -60509.88, 0.00, -0.03, -0.03
80, 18282.79, -7497.60, -39766.55, -41385.01, 0.00, 0.00, 0.00, -60763.75, -0.03, -0.03, 0.00
81, 18275.54, -7495.95, -39795.65, -41404.64, 0.00, 0.00, 0.00, -60922.80, 0.00, 0.00, -0.03
82, 18291.24, -7492.55, -39773.92, -41375.92, 0.00, 0.00, 0.00, -60688.92, 0.00, -0.03, -0.03
83, 18300.76, -7493.91, -39743.23, -41357.90, 0.00, 0.00, 0.00, -60497.52, 0.00, 0.00, -0.03
84, 18297.36, -7489.87, -39760.78, -41383.65, 0.00, 0.00, 0.00, -60702.80, -0.03, -0.03, -0.03
85, 18283.57, -7490.40, -39800.45, -41414.16, 0.00, 0.00, 0.00, -60928.24, -0.03, -0.03, -0.03
86, 18286.90, -7494.96, -39790.29, -41394.49, 0.00, 0.00, 0.00, -60751.66, -0.03, -0.03, 0.00
87, 18300.60, -7492.42, -39752.82, -41362.89, 0.00, 0.00, 0.00, -60506.64, -0.03, -0.03, -0.03
88, 18293.49, -7490.18, -39759.08, -41382.53, 0.00, 0.00, 0.00, -60654.56, 0.00, 0.00, -0.03
89, 18275.66, -7490.76, -39806.93, -41418.50, 0.00, 0.00, 0.00, -60928.68, -0.03, 0.00, -0.03
90, 18283.75, -7489.73, -39802.29, -41401.29, 0.00, 0.00, 0.00, -60816.32, -0.03, -0.03, -0.03
91, 18300.49, -7492.51, -39759.44, -41363.29, 0.00, 0.00, 0.00, -60533.26, -0.03, -0.03, -0.03
92, 18297.18, -7490.25, -39754.57, -41369.81, 0.00, 0.00, 0.00, -60604.61, 0.00, 0.00, 0.00
93, 18276.06, -7493.67, -39796.96, -41411.10, 0.00, 0.00, 0.00, -60898.55, -0.03, -0.03, 0.00
94, 18280.26, -7491.97, -39802.67, -41410.23, 0.00, 0.00, 0.00, -60861.81, 0.00, -0.03, 0.00
95, 18299.91, -7490.31, -39761.70, -41373.46, 0.00, 0.00, 0.00, -60564.55, -0.03, -0.03, -0.03
96, 18301.21, -7488.93, -39744.95, -41370.42, 0.00, 0.00, 0.00, -60557.49, -0.03, -0.03, -0.03
97, 18284.08, -7493.44, -39784.02, -41414.88, 0.00, 0.00, 0.00, -60855.02, -0.03, -0.03, 0.00
98, 18283.32, -7490.25, -39804.43, -41425.20, 0.00, 0.00, 0.00, -60901.01, -0.03, 0.00, -0.03
99, 18296.04, -7490.16, -39775.40, -41391.38, 0.00, 0.00, 0.00, -60620.48, -0.03, 0.00, -0.03
100, 18301.83, -7490.96, -39756.13, -41381.04, 0.00, 0.00, 0.00, -60537.82, -0.03, 0.00, 0.00
101, 18295.15, -7485.20, -39786.75, -41412.13, 0.00, 0.00, 0.00, -60813.68, 0.00, -0.03, 0.00
102, 18285.71, -7485.69, -39814.69, -41430.50, 0.00, 0.00, 0.00, -60932.51, -0.03, 0.00, -0.03
103, 18301.83, -7482.65, -39787.49, -41396.52, 0.00, 0.00, 0.00, -60673.18, 0.00, -0.03, 0.00
104, 18307.55, -7485.46, -39760.82, -41376.96, 0.00, 0.00, 0.00, -60518.29, -0.03, 0.00, 0.00
105, 18297.21, -7483.63, -39788.99, -41407.30, 0.00, 0.00, 0.00, -60759.35, -0.03, 0.00, 0.00
106, 18291.08, -7477.75, -39816.46, -41427.32, 0.00, 0.00, 0.00, -60940.09, -0.03, 0.00, -0.03
107, 18305.03, -7476.32, -39795.09, -41398.78, 0.00, 0.00, 0.00, -60722.54, 0.00, -0.03, -0.03
108, 18315.82, -7476.28, -39761.00, -41371.60, 0.00, 0.00, 0.00, -60509.50, -0.03, -0.03, 0.00
109, 18303.24, -7477.42, -39771.60, -41391.65, 0.00, 0.00, 0.00, -60697.39, 0.00, -0.03, 0.00
110, 18288.44, -7482.67, -39813.13, -41419.93, 0.00, 0.00, 0.00, -60938.48, 0.00, -0.03, -0.03
111, 18298.84, -7481.20, -39799.67, -41392.32, 0.00, 0.00, 0.00, -60778.13, -0.03, -0.03, -0.03
112, 18313.63, -7479.59, -39754.30, -41352.54, 0.00, 0.00, 0.00, -60512.74, 0.00, -0.03, 0.00
113, 18305.36, -7483.01, -39761.29, -41371.58, 0.00, 0.00, 0.00, -60639.41, -0.03, -0.03, -0.03
114, 18293.70, -7484.93, -39801.30, -41411.34, 0.00, 0.00, 0.00, -60918.16, -0.03, -0.03, -0.03
115, 18292.35, -7488.66, -39799.87, -41402.00, 0.00, 0.00, 0.00, -60829.76, -0.03, 0.00, -0.03
116, 18304.45, -7488.10, -39756.20, -41364.47, 0.00, 0.00, 0.00, -60541.57, -0.03, -0.03, -0.03
117, 18300.78, -7485.96, -39751.50, -41371.51, 0.00, 0.00, 0.00, -60592.05, -0.03, -0.03, -0.03
118, 18280.28, -7487.21, -39793.37, -41410.81, 0.00, 0.00, 0.00, -60887.94, -0.03, -0.03, 0.00
119, 18280.11, -7489.02, -39804.75, -41411.77, 0.00, 0.00, 0.00, -60874.57, 0.00, -0.03, -0.03
120, 18299.06, -7490.90, -39767.80, -41373.61, 0.00, 0.00, 0.00, -60579.89, -0.03, -0.03, -0.03
121, 18297.54, -7493.40, -39754.86, -41372.54, 0.00, 0.00, 0.00, -60554.76, 0.00, -0.03, -0.03
122, 18285.13, -7489.82, -39791.36, -41410.09, 0.00, 0.00, 0.00, -60849.65, -0.03, -0.03, -0.03
123, 18280.40, -7489.89, -39809.91, -41416.84, 0.00, 0.00, 0.00, -60914.47, -0.03, 0.00, 0.00
124, 18295.86, -7490.11, -39774.97, -41377.61, 0.00, 0.00, 0.00, -60626.18, -0.03, -0.03, -0.03
125, 18302.41, -7490.90, -39751.73, -41365.01, 0.00, 0.00, 0.00, -60523.31, 0.00, -0.03, -0.03
126, 18284.73, -7491.63, -39782.62, -41402.34, 0.00, 0.00, 0.00, -60796.74, 0.00, -0.03, -0.03
127, 18279.95, -7487.83, -39808.54, -41421.43, 0.00, 0.00, 0.00, -60935.19, -0.03, -0.03, -0.03
128, 18304.38, -7482.40, -39779.93, -41387.52, 0.00, 0.00, 0.00, -60679.82, -0.03, -0.03, -0.03
129, 18315.33, -7479.34, -39747.68, -41367.51, 0.00, 0.00, 0.00, -60506.91, -0.03, -0.03, 0.00
130, 18302.79, -7481.96, -39770.23, -41399.05, 0.00, 0.00, 0.00, -60737.58, -0.03, -0.03, 0.00
131, 18292.89, -7481.31, -39803.61, -41425.98, 0.00, 0.00, 0.00, -60943.23, -0.03, -0.03, -0.03
132, 18302.48, -7480.46, -39784.90, -41398.78, 0.00, 0.00, 0.00, -60739.90, -0.03, -0.03, -0.03
133, 18316.38, -7484.55, -39747.43, -41366.39, 0.00, 0.00, 0.00, -60506.59, -0.03, -0.03, 0.00
134, 18303.51, -7485.93, -39762.84, -41386.64, 0.00, 0.00, 0.00, -60677.79, 0.00, -0.03, -0.03
135, 18289.94, -7482.65, -39805.71, -41419.59, 0.00, 0.00, 0.00, -60934.03, -0.03, 0.00, -0.03
136, 18293.40, -7481.31, -39799.34, -41403.61, 0.00, 0.00, 0.00, -60799.65, 0.00, -0.03, -0.03
137, 18304.83, -7482.42, -39755.35, -41366.68, 0.00, 0.00, 0.00, -60524.83, -0.03, 0.00, -0.03
138, 18307.33, -7486.27, -39755.13, -41380.07, 0.00, 0.00, 0.00, -60624.77, -0.03, -0.03, -0.03
139, 18287.53, -7494.72, -39799.00, -41419.39, 0.00, 0.00, 0.00, -60915.48, -0.03, -0.03, 0.00
140, 18286.83, -7497.38, -39802.67, -41413.36, 0.00, 0.00, 0.00, -60852.06, -0.03, -0.03, -0.03
141, 18304.89, -7495.23, -39761.23, -41373.41, 0.00, 0.00, 0.00, -60555.21, -0.03, -0.03, -0.03
142, 18300.02, -7497.69, -39757.36, -41375.74, 0.00, 0.00, 0.00, -60579.77, -0.03, -0.03, -0.03
143, 18281.02, -7499.75, -39801.88, -41419.28, 0.00, 0.00, 0.00, -60885.84, 0.00, 0.00, -0.03
144, 18287.28, -7497.04, -39816.12, -41420.29, 0.00, 0.00, 0.00, -60899.34, 0.00, -0.03, -0.03
145, 18298.57, -7500.91, -39777.03, -41379.20, 0.00, 0.00, 0.00, -60603.24, -0.03, -0.03, -0.03
146, 18292.91, -7509.67, -39760.80, -41373.88, 0.00, 0.00, 0.00, -60549.40, -0.03, -0.03, 0.00
147, 18274.52, -7511.55, -39793.34, -41413.40, 0.00, 0.00, 0.00, -60840.04, -0.03, -0.03, 0.00
148, 18271.46, -7508.82, -39816.66, -41426.79, 0.00, 0.00, 0.00, -60932.39, -0.03, -0.03, 0.00
149, 18285.27, -7507.30, -39782.91, -41390.67, 0.00, 0.00, 0.00, -60653.31, -0.03, -0.03, 0.00
150, 18297.12, -7506.81, -39751.53, -41372.65, 0.00, 0.00, 0.00, -60519.85, -0.03, -0.03, -0.03
151, 18284.71, -7509.11, -39781.45, -41408.97, 0.00, 0.00, 0.00, -60784.38, -0.03, -0.03, -0.03
152, 18274.92, -7509.27, -39811.29, -41430.41, 0.00, 0.00, 0.00, -60947.64, 0.00, -0.03, 0.00
153, 18287.17, -7509.49, -39780.43, -41396.77, 0.00, 0.00, 0.00, -60705.28, -0.03, -0.03, -0.03
154, 18299.22, -7506.92, -39740.68, -41371.22, 0.00, 0.00, 0.00, -60502.55, -0.03, 0.00, -0.03
155, 18295.19, -7507.12, -39757.58, -41397.75, 0.00, 0.00, 0.00, -60714.13, -0.03, -0.03, -0.03
156, 18283.19, -7507.44, -39799.43, -41429.49, 0.00, 0.00, 0.00, -60942.95, -0.03, -0.03, -0.03
157, 18295.80, -7503.32, -39785.25, -41405.80, 0.00, 0.00, 0.00, -60758.10, -0.03, -0.03, -0.03
158, 18306.79, -7503.97, -39745.45, -41370.93, 0.00, 0.00, 0.00, -60506.82, -0.03, -0.03, 0.00
159, 18293.52, -7511.01, -39758.21, -41389.89, 0.00, 0.00, 0.00, -60656.29, -0.03, -0.03, 0.00
160, 18281.11, -7512.53, -39796.50, -41425.20, 0.00, 0.00, 0.00, -60925.80, -0.03, 0.00, 0.00
161, 18288.40, -7505.85, -39790.84, -41406.94, 0.00, 0.00, 0.00, -60810.46, -0.03, -0.03, -0.03
162, 18300.45, -7507.77, -39754.59, -41368.79, 0.00, 0.00, 0.00, -60528.88, 0.00, 0.00, -0.03
163, 18295.84, -7510.28, -39754.72, -41374.22, 0.00, 0.00, 0.00, -60607.02, 0.00, 0.00, -0.03
164, 18275.23, -7512.33, -39797.19, -41409.33, 0.00, 0.00, 0.00, -60900.37, -0.03, 0.00, 0.00
165, 18279.99, -7511.95, -39804.45, -41404.71, 0.00, 0.00, 0.00, -60860.02, -0.03, -0.03, -0.03
166, 18293.99, -7513.40, -39763.51, -41367.02, 0.00, 0.00, 0.00, -60557.85, -0.03, -0.03, 0.00
167, 18297.21, -7513.05, -39747.93, -41364.96, 0.00, 0.00, 0.00, -60554.72, 0.00, 0.00, -0.03
168, 18276.42, -7517.43, -39793.75, -41409.96, 0.00, 0.00, 0.00, -60861.09, 0.00, -0.03, -0.03
169, 18269.89, -7518.05, -39808.57, -41419.73, 0.00, 0.00, 0.00, -60905.39, -0.03, 0.00, -0.03
170, 18294.28, -7513.02, -39771.62, -41382.49, 0.00, 0.00, 0.00, -60611.27, -0.03, -0.03, -0.03
171, 18295.91, -7512.89, -39751.04, -41373.17, 0.00, 0.00, 0.00, -60532.77, 0.00, 0.00, 0.00
172, 18279.35, -7513.90, -39785.16, -41412.93, 0.00, 0.00, 0.00, -60819.03, -0.03, -0.03, -0.03
173, 18269.44, -7514.37, -39814.20, -41438.72, 0.00, 0.00, 0.00, -60944.36, -0.03, -0.03, 0.00
174, 18277.65, -7517.07, -39786.82, -41410.92, 0.00, 0.00, 0.00, -60682.66, -0.03, -0.03, 0.00
175, 18281.67, -7520.76, -39760.20, -41392.79, 0.00, 0.00, 0.00, -60532.93, 0.00, -0.03, -0.03
176, 18274.94, -7519.64, -39787.87, -41425.92, 0.00, 0.00, 0.00, -60781.97, 0.00, -0.03, -0.03
177, 18265.46, -7514.83, -39814.71, -41445.03, 0.00, 0.00, 0.00, -60964.65, 0.00, 0.00, -0.03
178, 18272.17, -7517.25, -39787.36, -41414.81, 0.00, 0.00, 0.00, -60736.39, 0.00, -0.03, 0.00
179, 18293.29, -7509.96, -39746.65, -41382.49, 0.00, 0.00, 0.00, -60512.90, 0.00, -0.03, -0.03
180, 18285.74, -7507.66, -39766.21, -41405.20, 0.00, 0.00, 0.00, -60705.14, -0.03, -0.03, -0.03
181, 18272.24, -7506.54, -39803.58, -41431.97, 0.00, 0.00, 0.00, -60946.21, -0.03, -0.03, -0.03
182, 18280.28, -7506.01, -39791.78, -41408.15, 0.00, 0.00, 0.00, -60784.16, -0.03, 0.00, 0.00
183, 18296.89, -7500.37, -39749.07, -41368.85, 0.00, 0.00, 0.00, -60516.59, -0.03, -0.03, -0.03
184, 18291.57, -7504.91, -39757.09, -41385.53, 0.00, 0.00, 0.00, -60643.21, -0.03, 0.00, 0.00
185, 18277.00, -7505.13, -39803.14, -41419.10, 0.00, 0.00, 0.00, -60928.57, -0.03, 0.00, -0.03
186, 18279.14, -7506.94, -39807.16, -41408.41, 0.00, 0.00, 0.00, -60841.67, -0.03, -0.03, 0.00
187, 18286.32, -7509.54, -39767.48, -41371.02, 0.00, 0.00, 0.00, -60547.34, 0.00, 0.00, -0.03
188, 18282.52, -7514.57, -39765.38, -41379.05, 0.00, 0.00, 0.00, -60599.64, 0.00, 0.00, -0.03
189, 18266.54, -7515.62, -39805.04, -41417.33, 0.00, 0.00, 0.00, -60903.18, -0.03, -0.03, -0.03
190, 18267.25, -7513.96, -39813.57, -41414.96, 0.00, 0.00, 0.00, -60891.16, -0.03, 0.00, 0.00
191, 18278.56, -7516.02, -39774.59, -41378.78, 0.00, 0.00, 0.00, -60591.78, -0.03, -0.03, -0.03
192, 18274.90, -7522.28, -39761.58, -41378.38, 0.00, 0.00, 0.00, -60565.34, -0.03, -0.03, 0.00
193, 18261.06, -7523.89, -39800.48, -41419.39, 0.00, 0.00, 0.00, -60867.06, -0.03, -0.03, -0.03
194, 18257.78, -7525.18, -39820.57, -41430.34, 0.00, 0.00, 0.00, -60936.20, -0.03, -0.03, -0.03
195, 18271.88, -7523.40, -39785.07, -41392.32, 0.00, 0.00, 0.00, -60648.02, -0.03, -0.03, -0.03
196, 18275.21, -7522.05, -39763.06, -41383.67, 0.00, 0.00, 0.00, -60542.31, -0.03, 0.00, 0.00
197, 18264.15, -7522.19, -39799.31, -41422.18, 0.00, 0.00, 0.00, -60820.57, -0.03, 0.00, -0.03
198, 18261.17, -7516.87, -39823.48, -41438.66, 0.00, 0.00, 0.00, -60960.83, 0.00, -0.03, 0.00
199, 18277.96, -7512.89, -39790.15, -41404.21, 0.00, 0.00, 0.00, -60699.22, -0.03, -0.03, -0.03
200, 18286.70, -7513.87, -39754.68, -41379.76, 0.00, 0.00, 0.00, -60518.31, -0.03, -0.03, 0.00
201, 18269.49, -7518.48, -39775.69, -41409.20, 0.00, 0.00, 0.00, -60747.86, 0.00, 0.00, 0.00
202, 18265.51, -7517.58, -39805.59, -41430.66, 0.00, 0.00, 0.00, -60951.39, -0.03, 0.00, -0.03
203, 18277.04, -7511.75, -39785.25, -41403.43, 0.00, 0.00, 0.00, -60747.30, -0.03, -0.03, -0.03
204, 18294.86, -7505.09, -39745.63, -41370.04, 0.00, 0.00, 0.00, -60507.71, -0.03, 0.00, 0.00
205, 18282.27, -7505.92, -39761.43, -41389.86, 0.00, 0.00, 0.00, -60679.75, -0.03, 0.00, -0.03
206, 18266.22, -7506.65, -39808.14, -41421.49, 0.00, 0.00, 0.00, -60940.96, -0.03, 0.00, -0.03
207, 18277.78, -7503.35, -39801.01, -41402.09, 0.00, 0.00, 0.00, -60799.13, 0.00, 0.00, 0.00
208, 18297.67, -7500.66, -39750.95, -41365.28, 0.00, 0.00, 0.00, -60521.61, 0.00, -0.03, -0.03
209, 18292.40, -7500.98, -39753.61, -41379.49, 0.00, 0.00, 0.00, -60626.07, -0.03, -0.03, -0.03
210, 18275.97, -7504.53, -39794.89, -41421.00, 0.00, 0.00, 0.00, -60918.94, 0.00, -0.03, 0.00
211, 18273.24, -7508.20, -39798.33, -41413.49, 0.00, 0.00, 0.00, -60854.57, 0.00, -0.03, 0.00
212, 18282.74, -7513.92, -39761.88, -41378.89, 0.00, 0.00, 0.00, -60559.41, -0.03, -0.03, -0.03
213, 18285.71, -7514.41, -39756.20, -41383.43, 0.00, 0.00, 0.00, -60584.27, 0.00, -0.03, -0.03
214, 18261.60, -7511.39, -39801.59, -41422.25, 0.00, 0.00, 0.00, -60890.66, -0.03, -0.03, -0.03
215, 18256.57, -7512.62, -39818.04, -41422.92, 0.00, 0.00, 0.00, -60907.32, 0.00, 0.00, -0.03
216, 18274.99, -7518.10, -39783.87, -41387.18, 0.00, 0.00, 0.00, -60611.83, -0.03, -0.03, -0.03
217, 18275.03, -7520.76, -39765.41, -41381.86, 0.00, 0.00, 0.00, -60560.91, -0.03, 0.00, 0.00
218, 18254.24, -7527.67, -39804.03, -41425.63, 0.00, 0.00, 0.00, -60857.56, 0.00, -0.03, -0.03
219, 18250.00, -7529.54, -39829.71, -41441.56, 0.00, 0.00, 0.00, -60953.36, 0.00, -0.03, -0.03
220, 18264.84, -7527.26, -39796.48, -41403.61, 0.00, 0.00, 0.00, -60673.16, -0.03, -0.03, -0.03
221, 18268.37, -7527.75, -39772.13, -41389.15, 0.00, 0.00, 0.00, -60541.75, 0.00, 0.00, -0.03
222, 18261.46, -7527.02, -39798.40, -41419.59, 0.00, 0.00, 0.00, -60802.35, 0.00, -0.03, -0.03
223, 18254.11, -7524.69, -39829.96, -41440.85, 0.00, 0.00, 0.00, -60967.04, 0.00, -0.03, -0.03
224, 18266.36, -7520.29, -39805.15, -41407.48, 0.00, 0.00, 0.00, -60722.09, 0.00, -0.03, -0.03
225, 18283.86, -7513.14, -39764.13, -41372.45, 0.00, 0.00, 0.00, -60511.49, -0.03, -0.03, -0.03
226, 18277.07, -7513.96, -39781.05, -41394.36, 0.00, 0.00, 0.00, -60723.79, -0.03, 0.00, 0.00
227, 18267.01, -7512.60, -39815.16, -41423.28, 0.00, 0.00, 0.00, -60948.94, 0.00, -0.03, -0.03
228, 18278.54, -7508.26, -39796.63, -41397.08, 0.00, 0.00, 0.00, -60760.45, 0.00, -0.03, -0.03
229, 18294.97, -7501.51, -39753.00, -41360.29, 0.00, 0.00, 0.00, -60502.91, 0.00, -0.03, 0.00
230, 18289.31, -7498.83, -39764.04, -41377.66, 0.00, 0.00, 0.00, -60653.27, 0.00, 0.00, -0.03
231, 18274.32, -7497.38, -39804.19, -41410.88, 0.00, 0.00, 0.00, -60925.06, -0.03, 0.00, -0.03
232, 18282.34, -7497.67, -39797.55, -41395.74, 0.00, 0.00, 0.00, -60805.15, 0.00, 0.00, 0.00
233, 18297.61, -7496.93, -39758.10, -41359.98, 0.00, 0.00, 0.00, -60513.77, 0.00, -0.03, -0.03
234, 18296.76, -7498.43, -39763.62, -41374.51, 0.00, 0.00, 0.00, -60600.20, 0.00, 0.00, -0.03
235, 18281.22, -7498.97, -39807.54, -41413.78, 0.00, 0.00, 0.00, -60905.28, 0.00, 0.00, 0.00
236, 18284.98, -7496.75, -39815.25, -41406.67, 0.00, 0.00, 0.00, -60865.88, -0.03, 0.00, 0.00
237, 18301.12, -7498.09, -39774.86, -41368.36, 0.00, 0.00, 0.00, -60563.48, -0.03, -0.03, -0.03
238, 18299.78, -7501.94, -39765.18, -41369.57, 0.00, 0.00, 0.00, -60563.70, -0.03, -0.03, -0.03
239, 18279.84, -7504.87, -39806.78, -41411.43, 0.00, 0.00, 0.00, -60872.58, -0.03, -0.03, -0.03
240, 18274.18, -7505.29, -39823.10, -41416.89, 0.00, 0.00, 0.00, -60915.97, 0.00, 0.00, -0.03
241, 18292.35, -7506.43, -39783.91, -41377.13, 0.00, 0.00, 0.00, -60619.02, 0.00, 0.00, -0.03
242, 18293.07, -7509.09, -39763.57, -41365.79, 0.00, 0.00, 0.00, -60543.36, 0.00, -0.03, -0.03
243, 18276.48, -7510.32, -39804.03, -41407.07, 0.00, 0.00, 0.00, -60837.73, 0.00, -0.03, -0.03
244, 18264.53, -7512.87, -39833.71, -41425.98, 0.00, 0.00, 0.00, -60959.66, -0.03, 0.00, 0.00
245, 18278.94, -7510.68, -39802.38, -41389.17, 0.00, 0.00, 0.00, -60685.92, 0.00, 0.00, -0.03
246, 18288.40, -7513.85, -39771.39, -41372.54, 0.00, 0.00, 0.00, -60531.18, -0.03, 0.00, -0.03
247, 18272.28, -7515.86, -39798.31, -41408.15, 0.00, 0.00, 0.00, -60780.67, 0.00, -0.03, -0.03
248, 18266.20, -7513.94, -39823.50, -41430.01, 0.00, 0.00, 0.00, -60961.86, -0.03, -0.03, 0.00
249, 18278.34, -7509.94, -39802.11, -41400.88, 0.00, 0.00, 0.00, -60738.81, -0.03, -0.03, -0.03
250, 18293.29, -7503.57, -39764.89, -41372.72, 0.00, 0.00, 0.00, -60518.13, -0.03, -0.03, 0.00
251, 18282.81, -7503.55, -39779.27, -41395.68, 0.00, 0.00, 0.00, -60709.59, -0.03, 0.00, -0.03
252, 18276.87, -7498.36, -39812.57, -41419.21, 0.00, 0.00, 0.00, -60947.30, 0.00, 0.00, 0.00
253, 18287.57, -7494.11, -39796.00, -41391.61, 0.00, 0.00, 0.00, -60778.68, 0.00, -0.03, -0.03
254, 18299.66, -7492.39, -39756.09, -41354.23, 0.00, 0.00, 0.00, -60510.06, -0.03, 0.00, -0.03
255, 18295.17, -7488.80, -39762.34, -41364.32, 0.00, 0.00, 0.00, -60638.85, -0.03, -0.03, 0.00
0, 18276.98, -7489.98, -39805.68, -41398.63, 0.00, 0.00, 0.00, -60923.39, -0.03, -0.03, -0.03
1, 18284.87, -7490.36, -39806.69, -41385.28, 0.00, 0.00, 0.00, -60829.51, -0.03, 0.00, -0.03
2, 18303.62, -7488.86, -39765.70, -41345.72, 0.00, 0.00, 0.00, -60533.02, -0.03, -0.03, -0.03
3, 18298.43, -7488.19, -39763.68, -41355.57, 0.00, 0.00, 0.00, -60589.70, 0.00, -0.03, -0.03
4, 18281.94, -7486.45, -39803.89, -41395.47, 0.00, 0.00, 0.00, -60889.88, 0.00, 0.00, 0.00
5, 18286.54, -7483.63, -39808.48, -41388.43, 0.00, 0.00, 0.00, -60872.00, -0.03, 0.00, 0.00
6, 18302.57, -7486.98, -39769.50, -41349.03, 0.00, 0.00, 0.00, -60571.93, 0.00, -0.03, -0.03
7, 18299.46, -7491.57, -39758.19, -41348.02, 0.00, 0.00, 0.00, -60546.45, -0.03, -0.03, 0.00
8, 18284.26, -7491.99, -39794.89, -41390.29, 0.00, 0.00, 0.00, -60848.18, -0.03, 0.00, -0.03
9, 18279.66, -7492.55, -39814.47, -41403.18, 0.00, 0.00, 0.00, -60915.03, 0.00, -0.03, -0.03
10, 18291.55, -7492.55, -39782.01, -41368.27, 0.00, 0.00, 0.00, -60624.21, -0.03, -0.03, -0.03
11, 18293.31, -7498.76, -39753.89, -41356.05, 0.00, 0.00, 0.00, -60515.60, -0.03, 0.00, 0.00
12, 18285.63, -7500.11, -39783.69, -41395.25, 0.00, 0.00, 0.00, -60794.66, -0.03, -0.03, -0.03
13, 18278.92, -7504.46, -39813.51, -41422.52, 0.00, 0.00, 0.00, -60941.89, -0.03, -0.03, 0.00
14, 18286.92, -7509.22, -39785.68, -41393.64, 0.00, 0.00, 0.00, -60686.53, 0.00, 0.00, 0.00
15, 18289.38, -7514.54, -39755.64, -41374.06, 0.00, 0.00, 0.00, -60512.09, 0.00, -0.03, -0.03
16, 18278.63, -7518.99, -39785.43, -41410.94, 0.00, 0.00, 0.00, -60755.64, -0.03, 0.00, -0.03
17, 18272.91, -7511.50, -39830.96, -41445.70, 0.00, 0.00, 0.00, -60977.14, -0.03, -0.03, -0.03
18, 18286.74, -7506.70, -39817.44, -41419.97, 0.00, 0.00, 0.00, -60773.63, 0.00, -0.03, -0.03
19, 18295.66, -7512.18, -39779.78, -41387.18, 0.00, 0.00, 0.00, -60532.97, 0.00, -0.03, 0.00
20, 18283.64, -7514.19, -39789.66, -41405.51, 0.00, 0.00, 0.00, -60702.62, -0.03, -0.03, 0.00
21, 18281.22, -7504.71, -39823.50, -41430.95, 0.00, 0.00, 0.00, -60957.86, 0.00, -0.03, -0.03
22, 18288.49, -7502.05, -39811.85, -41406.20, 0.00, 0.00, 0.00, -60809.48, 0.00, 0.00, 0.00
23, 18302.97, -7501.38, -39766.30, -41363.46, 0.00, 0.00, 0.00, -60523.96, 0.00, -0.03, -0.03
24, 18298.72, -7501.54, -39769.36, -41374.84, 0.00, 0.00, 0.00, -60623.83, 0.00, -0.03, -0.03
25, 18289.09, -7501.18, -39808.77, -41411.39, 0.00, 0.00, 0.00, -60915.30, -0.03, -0.03, 0.00
26, 18298.75, -7498.83, -39809.46, -41401.98, 0.00, 0.00, 0.00, -60848.09, -0.03, 0.00, 0.00
27, 18315.98, -7498.34, -39763.24, -41356.70, 0.00, 0.00, 0.00, -60541.78, -0.03, -0.03, -0.03
28, 18310.46, -7501.85, -39752.75, -41357.41, 0.00, 0.00, 0.00, -60565.80, -0.03, 0.00, -0.03
29, 18289.22, -7505.38, -39795.07, -41399.23, 0.00, 0.00, 0.00, -60876.18, -0.03, 0.00, -0.03
30, 18286.81, -7502.97, -39807.36, -41401.38, 0.00, 0.00, 0.00, -60888.03, 0.00, -0.03, 0.00
31, 18302.84, -7501.80, -39767.66, -41361.41, 0.00, 0.00, 0.00, -60583.21, -0.03, -0.03, -0.03
32, 18304.67, -7505.56, -39749.83, -41360.05, 0.00, 0.00, 0.00, -60534.98, -0.03, -0.03, -0.03
33, 18288.96, -7506.86, -39791.07, -41403.05, 0.00, 0.00, 0.00, -60838.16, -0.03, -0.03, -0.03
34, 18283.35, -7507.59, -39814.82, -41419.95, 0.00, 0.00, 0.00, -60932.24, -0.03, 0.00, 0.00
35, 18294.21, -7509.56, -39782.57, -41390.87, 0.00, 0.00, 0.00, -60654.27, 0.00, -0.03, -0.03
36, 18300.45, -7513.25, -39757.47, -41377.50, 0.00, 0.00, 0.00, -60525.53, -0.03, -0.03, 0.00
37, 18287.79, -7514.34, -39794.29, -41414.50, 0.00, 0.00, 0.00, -60796.95, -0.03, -0.03, 0.00
38, 18274.43, -7511.48, -39830.96, -41435.91, 0.00, 0.00, 0.00, -60966.82, -0.03, -0.03, -0.03
39, 18285.80, -7511.77, -39809.77, -41405.71, 0.00, 0.00, 0.00, -60727.03, 0.00, 0.00, 0.00
40, 18300.40, -7511.75, -39775.35, -41379.76, 0.00, 0.00, 0.00, -60527.16, 0.00, -0.03, -0.03
41, 18289.00, -7509.45, -39795.04, -41404.79, 0.00, 0.00, 0.00, -60743.64, -0.03, -0.03, -0.03
42, 18280.15, -7506.10, -39829.55, -41429.14, 0.00, 0.00, 0.00, -60968.45, -0.03, 0.00, -0.03
43, 18288.40, -7503.01, -39811.83, -41401.11, 0.00, 0.00, 0.00, -60776.63, -0.03, -0.03, 0.00
44, 18300.47, -7504.40, -39765.45, -41365.61, 0.00, 0.00, 0.00, -60518.51, -0.03, -0.03, -0.03
45, 18293.61, -7505.29, -39773.45, -41385.46, 0.00, 0.00, 0.00, -60668.04, 0.00, -0.03, -0.03
46, 18283.70, -7501.07, -39808.81, -41417.20, 0.00, 0.00, 0.00, -60933.34, -0.03, -0.03, -0.03
47, 18295.86, -7500.69, -39804.23, -41401.00, 0.00, 0.00, 0.00, -60813.82, 0.00, 0.00, -0.03
48, 18312.18, -7502.83, -39767.57, -41362.66, 0.00, 0.00, 0.00, -60526.00, 0.00, -0.03, 0.00
49, 18308.04, -7497.60, -39768.42, -41369.97, 0.00, 0.00, 0.00, -60604.56, -0.03, -0.03, 0.00
50, 18293.25, -7492.17, -39808.41, -41406.00, 0.00, 0.00, 0.00, -60901.68, 0.00, 0.00, -0.03
51, 18295.77, -7494.90, -39813.64, -41403.34, 0.00, 0.00, 0.00, -60860.78, -0.03, 0.00, -0.03
52, 18314.48, -7496.98, -39773.63, -41365.70, 0.00, 0.00, 0.00, -60555.81, 0.00, 0.00, 0.00
53, 18312.27, -7494.52, -39762.90, -41367.33, 0.00, 0.00, 0.00, -60555.86, -0.03, -0.03, -0.03
54, 18291.79, -7495.23, -39799.27, -41409.20, 0.00, 0.00, 0.00, -60861.38, -0.03, -0.03, -0.03
55, 18290.99, -7494.38, -39818.20, -41414.38, 0.00, 0.00, 0.00, -60901.55, -0.03, -0.03, -0.03
56, 18302.79, -7496.93, -39784.45, -41376.48, 0.00, 0.00, 0.00, -60605.46, -0.03, -0.03, -0.03
57, 18311.11, -7495.21, -39766.50, -41368.70, 0.00, 0.00, 0.00, -60528.77, -0.03, -0.03, -0.03
58, 18301.25, -7499.17, -39802.91, -41412.84, 0.00, 0.00, 0.00, -60823.83, 0.00, -0.03, -0.03
59, 18289.18, -7500.13, -39831.50, -41432.45, 0.00, 0.00, 0.00, -60947.59, -0.03, -0.03, -0.03
60, 18301.27, -7497.65, -39798.38, -41395.90, 0.00, 0.00, 0.00, -60675.35, -0.03, -0.03, -0.03
61, 18306.84, -7500.46, -39767.75, -41377.86, 0.00, 0.00, 0.00, -60518.66, 0.00, -0.03, 0.00
62, 18290.52, -7503.64, -39798.31, -41413.80, 0.00, 0.00, 0.00, -60776.11, -0.03, -0.03, 0.00
63, 18279.48, -7504.29, -39834.88, -41439.29, 0.00, 0.00, 0.00, -60968.36, 0.00, -0.03, -0.03
64, 18292.18, -7503.61, -39810.45, -41407.66, 0.00, 0.00, 0.00, -60738.96, 0.00, -0.03, -0.03
65, 18300.22, -7506.43, -39773.81, -41381.77, 0.00, 0.00, 0.00, -60518.71, -0.03, -0.03, -0.03
66, 18292.31, -7506.03, -39791.78, -41404.46, 0.00, 0.00, 0.00, -60715.76, -0.03, -0.03, -0.03
67, 18281.74, -7503.10, -39829.40, -41434.01, 0.00, 0.00, 0.00, -60960.94, -0.03, -0.03, 0.00
68, 18298.57, -7497.83, -39817.93, -41415.61, 0.00, 0.00, 0.00, -60802.49, -0.03, 0.00, 0.00
69, 18314.26, -7498.47, -39775.84, -41379.07, 0.00, 0.00, 0.00, -60536.99, -0.03, -0.03, 0.00
70, 18309.16, -7498.16, -39784.27, -41392.95, 0.00, 0.00, 0.00, -60665.34, -0.03, -0.03, 0.00
71, 18295.24, -7497.36, -39827.05, -41428.22, 0.00, 0.00, 0.00, -60949.43, -0.03, 0.00, -0.03
72, 18296.65, -7496.73, -39816.03, -41410.00, 0.00, 0.00, 0.00, -60849.70, 0.00, -0.03, -0.03
73, 18302.90, -7505.38, -39774.95, -41371.80, 0.00, 0.00, 0.00, -60553.64, 0.00, -0.03, -0.03
74, 18297.65, -7508.87, -39773.63, -41377.70, 0.00, 0.00, 0.00, -60604.25, -0.03, -0.03, -0.03
75, 18291.19, -7502.16, -39815.30, -41417.09, 0.00, 0.00, 0.00, -60908.93, -0.03, -0.03, -0.03
76, 18286.39, -7501.83, -39820.21, -41413.36, 0.00, 0.00, 0.00, -60891.04, 0.00, -0.03, 0.00
77, 18297.18, -7506.99, -39777.25, -41371.27, 0.00, 0.00, 0.00, -60583.95, -0.03, -0.03, -0.03
78, 18303.60, -7509.36, -39761.88, -41369.19, 0.00, 0.00, 0.00, -60554.02, 0.00, 0.00, 0.00
79, 18290.79, -7510.36, -39802.89, -41411.75, 0.00, 0.00, 0.00, -60857.85, 0.00, -0.03, 0.00
80, 18287.77, -7507.88, -39823.27, -41422.83, 0.00, 0.00, 0.00, -60923.39, -0.03, -0.03, -0.03
81, 18298.68, -7509.09, -39787.85, -41384.03, 0.00, 0.00, 0.00, -60634.58, -0.03, -0.03, -0.03
82, 18296.24, -7514.48, -39761.02, -41370.75, 0.00, 0.00, 0.00, -60526.27, 0.00, -0.03, -0.03
83, 18287.53, -7515.71, -39797.01, -41410.83, 0.00, 0.00, 0.00, -60807.94, -0.03, -0.03, 0.00
84, 18277.60, -7511.64, -39831.25, -41436.07, 0.00, 0.00, 0.00, -60957.25, 0.00, -0.03, -0.03
85, 18286.83, -7514.25, -39808.57, -41407.68, 0.00, 0.00, 0.00, -60709.32, -0.03, 0.00, 0.00
86, 18289.76, -7523.75, -39774.32, -41385.64, 0.00, 0.00, 0.00, -60530.58, 0.00, -0.03, -0.03
87, 18274.23, -7528.72, -39800.54, -41419.14, 0.00, 0.00, 0.00, -60767.55, 0.00, -0.03, -0.03
88, 18259.03, -7530.93, -39839.05, -41451.51, 0.00, 0.00, 0.00, -60982.64, -0.03, 0.00, 0.00
89, 18275.08, -7526.08, -39821.51, -41423.66, 0.00, 0.00, 0.00, -60781.39, -0.03, -0.03, -0.03
90, 18285.49, -7528.13, -39784.14, -41390.36, 0.00, 0.00, 0.00, -60544.04, -0.03, 0.00, 0.00
91, 18272.62, -7530.53, -39796.43, -41409.67, 0.00, 0.00, 0.00, -60713.80, 0.00, 0.00, -0.03
92, 18254.80, -7531.51, -39837.60, -41441.07, 0.00, 0.00, 0.00, -60971.36, 0.00, -0.03, 0.00
93, 18267.81, -7529.05, -39824.08, -41419.55, 0.00, 0.00, 0.00, -60829.89, 0.00, -0.03, -0.03
94, 18284.96, -7526.48, -39779.20, -41378.26, 0.00, 0.00, 0.00, -60547.99, -0.03, 0.00, 0.00
95, 18280.35, -7523.91, -39783.36, -41390.55, 0.00, 0.00, 0.00, -60648.46, -0.03, -0.03, -0.03
96, 18264.26, -7523.35, -39823.59, -41427.75, 0.00, 0.00, 0.00, -60935.41, 0.00, -0.03, 0.00
97, 18266.13, -7528.11, -39819.83, -41413.36, 0.00, 0.00, 0.00, -60864.16, -0.03, -0.03, -0.03
98, 18277.40, -7531.29, -39775.75, -41372.27, 0.00, 0.00, 0.00, -60561.63, 0.00, -0.03, -0.03
99, 18276.60, -7532.02, -39770.05, -41380.10, 0.00, 0.00, 0.00, -60587.57, -0.03, 0.00, 0.00
100, 18267.92, -7533.30, -39815.94, -41425.36, 0.00, 0.00, 0.00, -60895.76, 0.00, -0.03, 0.00
101, 18265.15, -7531.02, -39832.21, -41427.84, 0.00, 0.00, 0.00, -60914.13, 0.00, -0.03, 0.00
102, 18272.91, -7537.10, -39790.77, -41386.96, 0.00, 0.00, 0.00, -60610.06, 0.00, 0.00, -0.03
103, 18265.80, -7547.89, -39767.93, -41378.80, 0.00, 0.00, 0.00, -60550.85, -0.03, -0.03, -0.03
104, 18249.95, -7549.19, -39805.84, -41421.00, 0.00, 0.00, 0.00, -60847.50, 0.00, -0.03, -0.03
105, 18242.67, -7554.29, -39831.34, -41437.38, 0.00, 0.00, 0.00, -60946.14, -0.03, 0.00, 0.00
106, 18250.80, -7559.92, -39803.02, -41404.75, 0.00, 0.00, 0.00, -60673.52, -0.03, -0.03, 0.00
107, 18259.18, -7564.55, -39778.17, -41391.76, 0.00, 0.00, 0.00, -60544.66, 0.00, -0.03, -0.03
108, 18236.86, -7575.99, -39812.12, -41432.85, 0.00, 0.00, 0.00, -60812.46, -0.03, 0.00, -0.03
109, 18222.55, -7579.30, -39842.79, -41455.93, 0.00, 0.00, 0.00, -60981.64, 0.00, -0.03, -0.03
110, 18225.95, -7588.13, -39824.08, -41427.66, 0.00, 0.00, 0.00, -60751.48, 0.00, -0.03, 0.00
111, 18224.52, -7592.24, -39798.15, -41404.79, 0.00, 0.00, 0.00, -60560.17, -0.03, -0.03, -0.03
112, 18209.34, -7595.01, -39824.68, -41440.49, 0.00, 0.00, 0.00, -60783.24, -0.03, 0.00, 0.00
113, 18191.06, -7601.90, -39864.45, -41477.28, 0.00, 0.00, 0.00, -61015.39, 0.00, -0.03, -0.03
114, 18193.29, -7607.17, -39849.89, -41453.45, 0.00, 0.00, 0.00, -60831.95, -0.03, -0.03, -0.03
115, 18204.94, -7610.14, -39813.69, -41421.47, 0.00, 0.00, 0.00, -60580.40, -0.03, -0.03, 0.00
116, 18200.33, -7609.67, -39829.53, -41443.51, 0.00, 0.00, 0.00, -60736.19, -0.03, 0.00, -0.03
117, 18187.28, -7609.09, -39869.83, -41476.25, 0.00, 0.00, 0.00, -61006.94, -0.03, -0.03, -0.03
118, 18191.41, -7607.21, -39860.18, -41453.75, 0.00, 0.00, 0.00, -60884.45, -0.03, -0.03, -0.03
119, 18201.72, -7607.53, -39818.20, -41411.12, 0.00, 0.00, 0.00, -60593.54, 0.00, -0.03, 0.00
120, 18194.01, -7608.11, -39820.61, -41421.83, 0.00, 0.00, 0.00, -60668.38, -0.03, -0.03, 0.00
121, 18183.90, -7606.77, -39861.27, -41460.61, 0.00, 0.00, 0.00, -60964.14, -0.03, 0.00, 0.00
122, 18180.35, -7606.12, -39865.32, -41453.54, 0.00, 0.00, 0.00, -60925.80, 0.00, 0.00, -0.03
123, 18186.09, -7612.94, -39824.48, -41412.39, 0.00, 0.00, 0.00, -60623.67, -0.03, -0.03, -0.03
124, 18185.24, -7616.49, -39812.41, -41411.72, 0.00, 0.00, 0.00, -60616.81, 0.00, 0.00, -0.03
125, 18172.08, -7615.51, -39850.97, -41453.14, 0.00, 0.00, 0.00, -60915.03, -0.03, -0.03, -0.03
126, 18166.27, -7615.66, -39871.04, -41463.22, 0.00, 0.00, 0.00, -60965.01, 0.00, 0.00, 0.00
127, 18178.52, -7618.17, -39834.41, -41421.16, 0.00, 0.00, 0.00, -60670.46, 0.00, -0.03, 0.00
128, 18174.38, -7628.31, -39806.49, -41403.23, 0.00, 0.00, 0.00, -60579.26, -0.03, 0.00, -0.03
129, 18153.93, -7636.79, -39841.13, -41441.68, 0.00, 0.00, 0.00, -60865.18, -0.03, 0.00, -0.03
130, 18152.97, -7630.10, -39867.17, -41459.71, 0.00, 0.00, 0.00, -60988.10, -0.03, -0.03, 0.00
131, 18165.17, -7630.97, -39840.33, -41427.19, 0.00, 0.00, 0.00, -60723.47, -0.03, -0.03, -0.03
132, 18172.55, -7633.75, -39805.21, -41407.66, 0.00, 0.00, 0.00, -60564.29, -0.03, 0.00, -0.03
133, 18154.31, -7638.69, -39831.97, -41443.06, 0.00, 0.00, 0.00, -60814.58, 0.00, -0.03, 0.00
134, 18141.75, -7644.39, -39867.35, -41471.45, 0.00, 0.00, 0.00, -61009.44, -0.03, -0.03, 0.00
135, 18153.33, -7641.23, -39851.57, -41445.39, 0.00, 0.00, 0.00, -60797.28, 0.00, -0.03, 0.00
136, 18159.92, -7642.78, -39816.97, -41419.61, 0.00, 0.00, 0.00, -60582.39, -0.03, -0.03, -0.03
137, 18141.17, -7648.90, -39833.40, -41443.44, 0.00, 0.00, 0.00, -60773.23, 0.00, 0.00, 0.00
138, 18125.05, -7648.21, -39879.13, -41477.21, 0.00, 0.00, 0.00, -61022.74, 0.00, 0.00, -0.03
139, 18136.23, -7647.96, -39874.21, -41462.75, 0.00, 0.00, 0.00, -60871.78, -0.03, -0.03, 0.00
140, 18155.07, -7652.41, -39837.18, -41430.68, 0.00, 0.00, 0.00, -60609.59, -0.03, 0.00, -0.03
141, 18141.86, -7663.07, -39845.25, -41448.45, 0.00, 0.00, 0.00, -60732.70, -0.03, 0.00, 0.00
142, 18128.05, -7661.84, -39883.96, -41487.12, 0.00, 0.00, 0.00, -61013.42, -0.03, 0.00, -0.03
143, 18138.06, -7654.58, -39881.30, -41476.03, 0.00, 0.00, 0.00, -60926.76, -0.03, 0.00, -0.03
144, 18156.01, -7649.57, -39840.29, -41433.58, 0.00, 0.00, 0.00, -60633.69, 0.00, -0.03, -0.03
145, 18151.76, -7651.81, -39834.59, -41438.05, 0.00, 0.00, 0.00, -60676.58, 0.00, -0.03, 0.00
146, 18128.14, -7658.13, -39872.52, -41475.02, 0.00, 0.00, 0.00, -60971.29, -0.03, 0.00, -0.03
147, 18132.23, -7650.02, -39881.97, -41473.35, 0.00, 0.00, 0.00, -60964.71, 0.00, 0.00, -0.03
148, 18153.39, -7647.25, -39842.68, -41433.25, 0.00, 0.00, 0.00, -60666.19, 0.00, -0.03, -0.03
149, 18149.82, -7647.11, -39825.09, -41423.46, 0.00, 0.00, 0.00, -60624.99, 0.00, 0.00, -0.03
150, 18133.79, -7647.29, -39863.26, -41459.94, 0.00, 0.00, 0.00, -60913.93, 0.00, 0.00, -0.03
151, 18132.43, -7647.13, -39880.25, -41465.21, 0.00, 0.00, 0.00, -60981.08, 0.00, -0.03, 0.00
152, 18143.13, -7649.19, -39843.97, -41422.54, 0.00, 0.00, 0.00, -60692.96, -0.03, 0.00, 0.00
153, 18145.21, -7648.48, -39816.30, -41407.19, 0.00, 0.00, 0.00, -60578.12, 0.00, -0.03, 0.00
154, 18133.43, -7644.97, -39843.01, -41436.36, 0.00, 0.00, 0.00, -60840.15, -0.03, -0.03, -0.03
155, 18122.99, -7652.54, -39871.84, -41457.21, 0.00, 0.00, 0.00, -60984.03, 0.00, -0.03, 0.00
156, 18133.72, -7655.32, -39844.73, -41426.18, 0.00, 0.00, 0.00, -60738.67, 0.00, -0.03, -0.03
157, 18149.01, -7649.68, -39816.95, -41405.91, 0.00, 0.00, 0.00, -60565.89, -0.03, 0.00, -0.03
158, 18136.29, -7653.64, -39843.68, -41438.93, 0.00, 0.00, 0.00, -60795.76, -0.03, -0.03, 0.00
159, 18123.84, -7652.10, -39875.67, -41465.77, 0.00, 0.00, 0.00, -61007.54, -0.03, 0.00, 0.00
160, 18127.33, -7655.87, -39861.74, -41442.01, 0.00, 0.00, 0.00, -60813.20, 0.00, 0.00, 0.00
161, 18132.94, -7660.68, -39827.75, -41415.90, 0.00, 0.00, 0.00, -60581.29, -0.03, 0.00, -0.03
162, 18125.01, -7664.73, -39845.83, -41442.84, 0.00, 0.00, 0.00, -60753.94, 0.00, -0.03, -0.03
163, 18116.11, -7662.71, -39887.16, -41477.19, 0.00, 0.00, 0.00, -61013.29, -0.03, -0.03, -0.03
164, 18124.65, -7658.38, -39879.31, -41460.63, 0.00, 0.00, 0.00, -60881.07, 0.00, 0.00, -0.03
165, 18143.27, -7654.96, -39835.37, -41418.94, 0.00, 0.00, 0.00, -60602.73, 0.00, 0.00, -0.03
166, 18133.66, -7656.84, -39835.75, -41427.55, 0.00, 0.00, 0.00, -60698.17, -0.03, -0.03, -0.03
167, 18121.63, -7655.34, -39880.23, -41467.71, 0.00, 0.00, 0.00, -60987.87, 0.00, 0.00, -0.03
168, 18124.65, -7654.00, -39887.74, -41459.55, 0.00, 0.00, 0.00, -60932.84, -0.03, -0.03, -0.03
169, 18140.83, -7653.93, -39846.74, -41413.20, 0.00, 0.00, 0.00, -60634.83, -0.03, 0.00, 0.00
170, 18143.11, -7650.60, -39830.72, -41407.99, 0.00, 0.00, 0.00, -60645.36, -0.03, 0.00, -0.03
171, 18129.23, -7647.92, -39869.97, -41450.37, 0.00, 0.00, 0.00, -60945.52, -0.03, -0.03, 0.00
172, 18125.43, -7646.75, -39882.91, -41455.02, 0.00, 0.00, 0.00, -60966.08, 0.00, -0.03, -0.03
173, 18141.41, -7644.94, -39843.05, -41416.29, 0.00, 0.00, 0.00, -60671.57, -0.03, -0.03, -0.03
174, 18144.16, -7645.77, -39826.80, -41413.00, 0.00, 0.00, 0.00, -60612.12, 0.00, -0.03, 0.00
175, 18130.77, -7646.44, -39864.87, -41455.04, 0.00, 0.00, 0.00, -60900.39, -0.03, -0.03, -0.03
176, 18124.74, -7650.15, -39886.95, -41468.43, 0.00, 0.00, 0.00, -60993.80, -0.03, -0.03, -0.03
177, 18137.41, -7649.46, -39853.00, -41431.55, 0.00, 0.00, 0.00, -60717.57, -0.03, -0.03, -0.03
178, 18143.31, -7647.69, -39828.10, -41414.96, 0.00, 0.00, 0.00, -60586.77, 0.00, -0.03, 0.00
179, 18126.97, -7650.93, -39857.90, -41450.10, 0.00, 0.00, 0.00, -60842.32, 0.00, -0.03, 0.00
180, 18114.37, -7654.80, -39882.75, -41469.46, 0.00, 0.00, 0.00, -61002.91, 0.00, -0.03, -0.03
181, 18126.57, -7652.50, -39862.26, -41438.43, 0.00, 0.00, 0.00, -60772.02, 0.00, -0.03, 0.00
182, 18129.37, -7658.24, -39832.64, -41416.75, 0.00, 0.00, 0.00, -60578.66, -0.03, -0.03, 0.00
183, 18123.29, -7660.48, -39850.43, -41445.70, 0.00, 0.00, 0.00, -60785.86, -0.03, -0.03, 0.00
184, 18111.93, -7664.90, -39890.20, -41476.66, 0.00, 0.00, 0.00, -61016.21, -0.03, 0.00, -0.03
185, 18117.81, -7667.56, -39877.43, -41456.43, 0.00, 0.00, 0.00, -60845.40, 0.00, 0.00, -0.03
186, 18126.95, -7669.69, -39839.57, -41426.66, 0.00, 0.00, 0.00, -60599.00, 0.00, 0.00, 0.00
187, 18118.01, -7672.35, -39852.53, -41451.02, 0.00, 0.00, 0.00, -60745.76, -0.03, -0.03, -0.03
188, 18105.61, -7669.13, -39889.52, -41486.09, 0.00, 0.00, 0.00, -61015.03, -0.03, 0.00, 0.00
189, 18111.62, -7667.10, -39881.55, -41472.43, 0.00, 0.00, 0.00, -60906.82, -0.03, -0.03, -0.03
190, 18127.09, -7668.97, -39838.50, -41434.07, 0.00, 0.00, 0.00, -60620.77, -0.03, -0.03, 0.00
191, 18129.23, -7663.00, -39834.70, -41441.70, 0.00, 0.00, 0.00, -60686.19, -0.03, -0.03, -0.03
192, 18122.77, -7656.19, -39877.54, -41477.82, 0.00, 0.00, 0.00, -60978.51, 0.00, 0.00, -0.03
193, 18125.50, -7654.65, -39883.98, -41470.02, 0.00, 0.00, 0.00, -60946.16, -0.03, -0.03, -0.03
194, 18141.64, -7656.19, -39839.82, -41423.77, 0.00, 0.00, 0.00, -60644.91, -0.03, -0.03, -0.03
195, 18138.24, -7660.66, -39825.22, -41418.65, 0.00, 0.00, 0.00, -60627.56, -0.03, -0.03, -0.03
196, 18119.57, -7658.53, -39869.01, -41462.39, 0.00, 0.00, 0.00, -60926.54, 0.00, 0.00, -0.03
197, 18123.60, -7655.67, -39889.10, -41471.18, 0.00, 0.00, 0.00, -60978.93, -0.03, 0.00, 0.00
198, 18136.34, -7659.61, -39859.84, -41434.63, 0.00, 0.00, 0.00, -60694.19, 0.00, -0.03, 0.00
199, 18141.39, -7657.89, -39831.05, -41419.66, 0.00, 0.00, 0.00, -60607.34, 0.00, -0.03, 0.00
200, 18120.56, -7663.70, -39860.91, -41455.62, 0.00, 0.00, 0.00, -60882.75, -0.03, -0.03, -0.03
201, 18108.42, -7669.91, -39882.08, -41468.88, 0.00, 0.00, 0.00, -61000.14, -0.03, 0.00, 0.00
202, 18125.12, -7662.85, -39854.52, -41437.50, 0.00, 0.00, 0.00, -60742.88, -0.03, -0.03, -0.03
203, 18138.35, -7659.56, -39825.89, -41418.59, 0.00, 0.00, 0.00, -60585.21, -0.03, 0.00, -0.03
204, 18117.59, -7665.44, -39851.91, -41446.57, 0.00, 0.00, 0.00, -60823.36, -0.03, 0.00, 0.00
205, 18100.35, -7668.64, -39881.59, -41467.09, 0.00, 0.00, 0.00, -61007.09, -0.03, 0.00, 0.00
206, 18117.38, -7667.18, -39862.34, -41440.27, 0.00, 0.00, 0.00, -60797.28, 0.00, -0.03, 0.00
207, 18133.16, -7661.60, -39831.59, -41417.20, 0.00, 0.00, 0.00, -60586.48, 0.00, -0.03, -0.03
208, 18120.47, -7662.11, -39849.63, -41444.31, 0.00, 0.00, 0.00, -60776.96, 0.00, -0.03, 0.00
209, 18097.60, -7670.18, -39891.09, -41478.87, 0.00, 0.00, 0.00, -61021.96, -0.03, -0.03, -0.03
210, 18103.37, -7679.41, -39885.77, -41465.39, 0.00, 0.00, 0.00, -60873.81, -0.03, -0.03, -0.03
211, 18124.80, -7676.01, -39848.18, -41432.96, 0.00, 0.00, 0.00, -60613.66, -0.03, 0.00, -0.03
212, 18121.03, -7672.82, -39850.72, -41448.31, 0.00, 0.00, 0.00, -60727.00, 0.00, -0.03, -0.03
213, 18105.02, -7672.97, -39885.79, -41480.97, 0.00, 0.00, 0.00, -60998.33, -0.03, 0.00, -0.03
214, 18115.48, -7668.30, -39874.13, -41457.84, 0.00, 0.00, 0.00, -60906.38, -0.03, -0.03, 0.00
215, 18137.43, -7662.20, -39830.52, -41414.96, 0.00, 0.00, 0.00, -60609.12, -0.03, -0.03, -0.03
216, 18137.63, -7660.32, -39822.43, -41418.47, 0.00, 0.00, 0.00, -60644.46, -0.03, 0.00, -0.03
217, 18120.69, -7660.68, -39852.76, -41445.65, 0.00, 0.00, 0.00, -60928.04, -0.03, -0.03, 0.00
218, 18118.86, -7658.76, -39863.35, -41443.46, 0.00, 0.00, 0.00, -60921.18, -0.03, 0.00, -0.03
219, 18140.85, -7652.45, -39825.13, -41405.46, 0.00, 0.00, 0.00, -60630.20, -0.03, -0.03, -0.03
220, 18147.98, -7649.93, -39807.41, -41399.61, 0.00, 0.00, 0.00, -60593.72, -0.03, 0.00, -0.03
221, 18129.25, -7650.98, -39842.18, -41436.36, 0.00, 0.00, 0.00, -60881.03, -0.03, -0.03, -0.03
222, 18123.17, -7657.01, -39862.59, -41448.16, 0.00, 0.00, 0.00, -60954.01, 0.00, -0.03, 0.00
223, 18137.72, -7663.12, -39828.86, -41411.81, 0.00, 0.00, 0.00, -60676.25, -0.03, -0.03, 0.00
224, 18140.36, -7667.30, -39803.52, -41396.14, 0.00, 0.00, 0.00, -60560.35, -0.03, 0.00, -0.03
225, 18130.64, -7661.60, -39835.55, -41434.70, 0.00, 0.00, 0.00, -60824.79, -0.03, -0.03, 0.00
226, 18123.04, -7654.15, -39862.10, -41455.46, 0.00, 0.00, 0.00, -60970.68, 0.00, 0.00, -0.03
227, 18133.66, -7657.08, -39835.84, -41424.64, 0.00, 0.00, 0.00, -60727.77, -0.03, -0.03, -0.03
228, 18139.36, -7661.22, -39805.68, -41401.33, 0.00, 0.00, 0.00, -60547.63, 0.00, -0.03, 0.00
229, 18131.47, -7660.43, -39828.50, -41429.92, 0.00, 0.00, 0.00, -60770.30, 0.00, -0.03, -0.03
230, 18118.73, -7662.71, -39869.34, -41460.38, 0.00, 0.00, 0.00, -60985.35, 0.00, 0.00, -0.03
231, 18125.28, -7664.03, -39852.51, -41434.03, 0.00, 0.00, 0.00, -60795.47, -0.03, -0.03, -0.03
232, 18130.82, -7669.15, -39817.93, -41408.08, 0.00, 0.00, 0.00, -60566.41, -0.03, 0.00, -0.03
233, 18123.02, -7669.46, -39837.89, -41438.66, 0.00, 0.00, 0.00, -60741.76, 0.00, -0.03, 0.00
234, 18105.78, -7673.44, -39885.14, -41481.13, 0.00, 0.00, 0.00, -61009.66, -0.03, -0.03, 0.00
235, 18105.22, -7680.28, -39884.74, -41469.55, 0.00, 0.00, 0.00, -60887.51, -0.03, -0.03, -0.03
236, 18118.26, -7682.99, -39849.11, -41438.28, 0.00, 0.00, 0.00, -60619.92, -0.03, -0.03, -0.03
237, 18112.24, -7683.39, -39850.72, -41450.77, 0.00, 0.00, 0.00, -60712.54, 0.00, -0.03, 0.00
238, 18100.02, -7680.64, -39887.00, -41484.37, 0.00, 0.00, 0.00, -60996.28, 0.00, 0.00, -0.03
239, 18101.65, -7680.15, -39888.12, -41474.80, 0.00, 0.00, 0.00, -60938.81, -0.03, 0.00, -0.03
240, 18117.72, -7679.48, -39847.48, -41430.61, 0.00, 0.00, 0.00, -60645.20, -0.03, 0.00, 0.00
241, 18120.92, -7678.87, -39837.78, -41428.55, 0.00, 0.00, 0.00, -60657.18, -0.03, -0.03, -0.03
242, 18106.32, -7677.29, -39868.02, -41463.22, 0.00, 0.00, 0.00, -60946.03, -0.03, -0.03, -0.03
243, 18110.08, -7670.92, -39880.05, -41459.49, 0.00, 0.00, 0.00, -60963.53, 0.00, -0.03, 0.00
244, 18135.87, -7664.46, -39838.27, -41414.81, 0.00, 0.00, 0.00, -60667.80, 0.00, 0.00, -0.03
245, 18140.74, -7661.82, -39819.27, -41404.53, 0.00, 0.00, 0.00, -60601.55, 0.00, -0.03, 0.00
246, 18123.42, -7661.73, -39853.58, -41438.99, 0.00, 0.00, 0.00, -60886.73, 0.00, -0.03, 0.00
247, 18117.74, -7663.90, -39870.88, -41445.61, 0.00, 0.00, 0.00, -60979.67, -0.03, -0.03, 0.00
248, 18134.53, -7664.39, -39836.42, -41409.40, 0.00, 0.00, 0.00, -60707.54, 0.00, -0.03, -0.03
249, 18137.97, -7667.14, -39804.07, -41393.51, 0.00, 0.00, 0.00, -60566.61, 0.00, -0.03, 0.00
250, 18121.10, -7673.22, -39825.20, -41424.60, 0.00, 0.00, 0.00, -60813.42, -0.03, -0.03, -0.03
251, 18109.03, -7673.42, -39858.08, -41450.59, 0.00, 0.00, 0.00, -60983.43, -0.03, 0.00, 0.00
252, 18120.45, -7670.56, -39844.31, -41431.32, 0.00, 0.00, 0.00, -60764.36, -0.03, 0.00, -0.03
253, 18132.74, -7672.33, -39818.85, -41412.62, 0.00, 0.00, 0.00, -60572.04, 0.00, -0.03, -0.03
254, 18119.46, -7673.15, -39844.38, -41444.04, 0.00, 0.00, 0.00, -60778.35, 0.00, -0.03, 0.00
255, 18105.70, -7672.53, -39878.55, -41469.12, 0.00, 0.00, 0.00, -61001.11, -0.03, -0.03, 0.00
0, 18116.60, -7670.92, -39863.71, -41448.87, 0.00, 0.00, 0.00, -60831.59, -0.03, 0.00, -0.03
1, 18126.97, -7675.12, -39828.64, -41423.46, 0.00, 0.00, 0.00, -60588.34, 0.00, 0.00, -0.03
2, 18117.27, -7682.90, -39840.48, -41449.43, 0.00, 0.00, 0.00, -60732.35, -0.03, 0.00, 0.00
3, 18100.84, -7681.67, -39883.47, -41490.85, 0.00, 0.00, 0.00, -61004.86, -0.03, -0.03, -0.03
4, 18110.52, -7676.17, -39882.04, -41477.77, 0.00, 0.00, 0.00, -60904.32, -0.03, -0.03, 0.00
5, 18119.42, -7681.31, -39842.81, -41434.75, 0.00, 0.00, 0.00, -60622.38, 0.00, -0.03, -0.03
6, 18107.35, -7692.46, -39851.08, -41439.75, 0.00, 0.00, 0.00, -60691.51, 0.00, -0.03, -0.03
7, 18092.75, -7694.63, -39894.64, -41478.93, 0.00, 0.00, 0.00, -60986.89, -0.03, 0.00, 0.00
8, 18093.47, -7691.84, -39903.16, -41473.37, 0.00, 0.00, 0.00, -60955.53, -0.03, -0.03, 0.00
9, 18106.72, -7688.02, -39865.27, -41432.93, 0.00, 0.00, 0.00, -60661.94, -0.03, 0.00, -0.03
10, 18111.30, -7686.52, -39850.12, -41429.92, 0.00, 0.00, 0.00, -60648.48, -0.03, -0.03, -0.03
11, 18102.56, -7680.37, -39880.14, -41464.07, 0.00, 0.00, 0.00, -60935.01, -0.03, 0.00, -0.03
12, 18099.79, -7677.78, -39894.22, -41467.76, 0.00, 0.00, 0.00, -60981.03, 0.00, -0.03, -0.03
13, 18112.13, -7680.89, -39852.55, -41426.50, 0.00, 0.00, 0.00, -60688.54, -0.03, 0.00, -0.03
14, 18127.80, -7673.38, -39818.22, -41407.81, 0.00, 0.00, 0.00, -60589.74, -0.03, -0.03, 0.00
15, 18120.47, -7667.03, -39843.59, -41440.25, 0.00, 0.00, 0.00, -60856.63, -0.03, 0.00, 0.00
16, 18111.04, -7668.86, -39869.77, -41457.59, 0.00, 0.00, 0.00, -60978.15, -0.03, -0.03, -0.03
17, 18127.11, -7665.66, -39840.31, -41422.27, 0.00, 0.00, 0.00, -60719.56, -0.03, -0.03, -0.03
18, 18133.68, -7663.00, -39806.62, -41400.14, 0.00, 0.00, 0.00, -60558.00, -0.03, 0.00, 0.00
19, 18117.61, -7668.97, -39836.69, -41437.54, 0.00, 0.00, 0.00, -60800.05, -0.03, -0.03, -0.03
20, 18103.59, -7675.07, -39872.43, -41463.36, 0.00, 0.00, 0.00, -60990.06, 0.00, 0.00, -0.03
21, 18106.10, -7679.68, -39859.21, -41437.34, 0.00, 0.00, 0.00, -60786.10, -0.03, 0.00, -0.03
22, 18119.40, -7677.40, -39825.82, -41406.49, 0.00, 0.00, 0.00, -60573.38, -0.03, 0.00, -0.03
23, 18109.20, -7680.69, -39844.66, -41432.93, 0.00, 0.00, 0.00, -60759.08, 0.00, 0.00, 0.00
24, 18088.66, -7689.54, -39885.21, -41467.38, 0.00, 0.00, 0.00, -61000.46, -0.03, 0.00, 0.00
25, 18095.79, -7690.14, -39876.65, -41450.66, 0.00, 0.00, 0.00, -60853.67, -0.03, -0.03, -0.03
26, 18112.40, -7687.50, -39838.56, -41417.71, 0.00, 0.00, 0.00, -60591.26, 0.00, 0.00, 0.00
27, 18108.27, -7686.25, -39843.30, -41432.00, 0.00, 0.00, 0.00, -60706.55, 0.00, -0.03, -0.03
28, 18092.89, -7689.45, -39883.42, -41468.56, 0.00, 0.00, 0.00, -60982.02, -0.03, -0.03, -0.03
29, 18090.67, -7695.19, -39890.09, -41464.30, 0.00, 0.00, 0.00, -60908.19, -0.03, -0.03, 0.00
30, 18111.91, -7688.78, -39847.48, -41425.11, 0.00, 0.00, 0.00, -60622.04, -0.03, -0.03, -0.03
31, 18110.97, -7686.34, -39836.42, -41429.27, 0.00, 0.00, 0.00, -60657.36, 0.00, -0.03, -0.03
32, 18093.76, -7686.79, -39870.73, -41468.36, 0.00, 0.00, 0.00, -60949.90, -0.03, -0.03, 0.00
33, 18094.50, -7688.69, -39883.94, -41472.48, 0.00, 0.00, 0.00, -60949.11, 0.00, 0.00, 0.00
34, 18110.48, -7688.53, -39847.37, -41433.32, 0.00, 0.00, 0.00, -60657.27, -0.03, 0.00, 0.00
35, 18111.42, -7688.37, -39828.82, -41425.29, 0.00, 0.00, 0.00, -60619.61, -0.03, 0.00, -0.03
36, 18098.70, -7691.88, -39861.43, -41460.61, 0.00, 0.00, 0.00, -60907.32, -0.03, -0.03, -0.03
37, 18089.45, -7696.58, -39882.39, -41470.64, 0.00, 0.00, 0.00, -60981.35, -0.03, -0.03, -0.03
38, 18102.70, -7695.39, -39850.70, -41433.58, 0.00, 0.00, 0.00, -60707.11, -0.03, 0.00, 0.00
39, 18116.56, -7689.94, -39823.48, -41416.86, 0.00, 0.00, 0.00, -60592.25, -0.03, 0.00, -0.03
40, 18102.63, -7690.48, -39853.43, -41454.66, 0.00, 0.00, 0.00, -60853.76, -0.03, -0.03, -0.03
41, 18098.23, -7686.25, -39883.49, -41474.53, 0.00, 0.00, 0.00, -61002.25, 0.00, 0.00, 0.00
42, 18114.23, -7682.38, -39857.63, -41442.05, 0.00, 0.00, 0.00, -60760.33, 0.00, 0.00, -0.03
43, 18120.71, -7685.13, -39828.32, -41423.37, 0.00, 0.00, 0.00, -60584.02, 0.00, -0.03, -0.03
44, 18109.03, -7684.24, -39851.39, -41455.06, 0.00, 0.00, 0.00, -60804.07, 0.00, -0.03, 0.00
45, 18105.34, -7677.20, -39888.21, -41480.28, 0.00, 0.00, 0.00, -61012.15, 0.00, -0.03, -0.03
46, 18119.35, -7671.65, -39867.73, -41447.75, 0.00, 0.00, 0.00, -60819.36, -0.03, -0.03, -0.03
47, 18127.96, -7670.92, -39830.94, -41418.43, 0.00, 0.00, 0.00, -60586.93, -0.03, 0.00, -0.03
48, 18118.12, -7671.81, -39844.98, -41440.76, 0.00, 0.00, 0.00, -60748.91, -0.03, 0.00, -0.03
49, 18105.09, -7674.56, -39883.07, -41468.48, 0.00, 0.00, 0.00, -61001.35, -0.03, -0.03, 0.00
50, 18105.90, -7682.45, -39880.76, -41452.14, 0.00, 0.00, 0.00, -60880.14, -0.03, -0.03, 0.00
51, 18117.00, -7683.23, -39847.14, -41422.18, 0.00, 0.00, 0.00, -60613.55, -0.03, -0.03, -0.03
52, 18111.26, -7682.58, -39853.76, -41441.34, 0.00, 0.00, 0.00, -60708.54, 0.00, -0.03, 0.00
53, 18097.34, -7682.52, -39893.37, -41483.14, 0.00, 0.00, 0.00, -60998.87, -0.03, -0.03, -0.03
54, 18100.42, -7681.09, -39896.88, -41475.61, 0.00, 0.00, 0.00, -60945.07, -0.03, 0.00, 0.00
55, 18113.90, -7678.87, -39854.43, -41432.42, 0.00, 0.00, 0.00, -60653.20, 0.00, -0.03, -0.03
56, 18109.07, -7683.12, -39843.77, -41432.22, 0.00, 0.00, 0.00, -60664.55, 0.00, -0.03, 0.00
57, 18089.94, -7689.80, -39881.14, -41469.46, 0.00, 0.00, 0.00, -60954.52, -0.03, 0.00, 0.00
58, 18091.86, -7684.78, -39894.53, -41472.70, 0.00, 0.00, 0.00, -60978.08, -0.03, -0.03, -0.03
59, 18108.71, -7679.66, -39858.95, -41437.29, 0.00, 0.00, 0.00, -60691.89, 0.00, 0.00, 0.00
60, 18113.45, -7683.17, -39839.05, -41430.75, 0.00, 0.00, 0.00, -60627.88, 0.00, 0.00, 0.00
61, 18103.08, -7680.66, -39867.55, -41464.54, 0.00, 0.00, 0.00, -60902.46, -0.03, -0.03, -0.03
62, 18098.12, -7679.88, -39887.00, -41474.33, 0.00, 0.00, 0.00, -60996.28, 0.00, 0.00, 0.00
63, 18112.40, -7680.86, -39854.34, -41437.81, 0.00, 0.00, 0.00, -60727.68, -0.03, 0.00, 0.00
64, 18116.02, -7680.15, -39826.94, -41416.98, 0.00, 0.00, 0.00, -60590.61, 0.00, 0.00, -0.03
65, 18101.04, -7679.54, -39852.09, -41444.47, 0.00, 0.00, 0.00, -60835.37, -0.03, -0.03, -0.03
66, 18098.30, -7676.91, -39883.89, -41467.34, 0.00, 0.00, 0.00, -61004.46, -0.03, 0.00, -0.03
67, 18111.75, -7673.47, -39868.96, -41438.66, 0.00, 0.00, 0.00, -60782.57, -0.03, 0.00, -0.03
68, 18124.18, -7669.96, -39836.55, -41411.50, 0.00, 0.00, 0.00, -60584.42, 0.00, -0.03, 0.00
69, 18113.25, -7671.61, -39855.08, -41440.45, 0.00, 0.00, 0.00, -60785.84, 0.00, -0.03, 0.00
70, 18101.29, -7673.38, -39891.40, -41472.36, 0.00, 0.00, 0.00, -61012.57, -0.03, -0.03, -0.03
71, 18110.79, -7673.06, -39882.13, -41450.66, 0.00, 0.00, 0.00, -60845.76, -0.03, 0.00, 0.00
72, 18121.97, -7672.06, -39851.37, -41424.42, 0.00, 0.00, 0.00, -60606.17, -0.03, 0.00, -0.03
73, 18118.95, -7670.20, -39850.59, -41442.46, 0.00, 0.00, 0.00, -60741.78, -0.03, -0.03, 0.00
74, 18101.40, -7675.01, -39891.02, -41480.01, 0.00, 0.00, 0.00, -61009.93, -0.03, -0.03, -0.03
75, 18103.39, -7680.44, -39892.41, -41469.84, 0.00, 0.00, 0.00, -60911.99, 0.00, 0.00, -0.03
76, 18118.23, -7681.74, -39854.86, -41432.85, 0.00, 0.00, 0.00, -60633.78, -0.03, 0.00, 0.00
77, 18113.81, -7680.42, -39855.66, -41445.30, 0.00, 0.00, 0.00, -60702.55, -0.03, 0.00, 0.00
78, 18101.67, -7676.86, -39897.19, -41485.64, 0.00, 0.00, 0.00, -60991.98, 0.00, 0.00, 0.00
79, 18110.37, -7671.88, -39901.35, -41478.15, 0.00, 0.00, 0.00, -60959.55, 0.00, -0.03, 0.00
80, 18125.45, -7671.61, -39859.04, -41433.16, 0.00, 0.00, 0.00, -60666.23, -0.03, -0.03, -0.03
81, 18116.76, -7679.81, -39845.36, -41432.93, 0.00, 0.00, 0.00, -60654.50, -0.03, -0.03, -0.03
82, 18099.30, -7684.75, -39880.56, -41473.46, 0.00, 0.00, 0.00, -60947.21, 0.00, 0.00, -0.03
83, 18096.62, -7686.70, -39902.73, -41486.42, 0.00, 0.00, 0.00, -61001.08, -0.03, 0.00, -0.03
84, 18109.12, -7684.57, -39867.71, -41452.92, 0.00, 0.00, 0.00, -60721.20, -0.03, 0.00, -0.03
85, 18112.58, -7683.46, -39840.69, -41439.04, 0.00, 0.00, 0.00, -60626.55, -0.03, -0.03, 0.00
86, 18094.50, -7690.39, -39867.38, -41472.18, 0.00, 0.00, 0.00, -60892.27, 0.00, 0.00, 0.00
87, 18091.86, -7687.66, -39889.70, -41485.64, 0.00, 0.00, 0.00, -61009.02, -0.03, -0.03, -0.03
88, 18111.71, -7682.14, -39861.72, -41449.32, 0.00, 0.00, 0.00, -60753.89, 0.00, -0.03, 0.00
89, 18112.80, -7686.94, -39832.89, -41428.46, 0.00, 0.00, 0.00, -60594.21, -0.03, -0.03, -0.03
90, 18102.74, -7686.85, -39855.04, -41457.39, 0.00, 0.00, 0.00, -60823.95, -0.03, 0.00, -0.03
91, 18100.98, -7680.60, -39886.75, -41482.89, 0.00, 0.00, 0.00, -61011.03, 0.00, -0.03, -0.03
92, 18110.97, -7679.10, -39869.59, -41458.51, 0.00, 0.00, 0.00, -60803.96, -0.03, -0.03, -0.03
93, 18121.07, -7678.56, -39834.85, -41430.10, 0.00, 0.00, 0.00, -60588.25, -0.03, -0.03, 0.00
94, 18107.17, -7681.42, -39849.45, -41454.44, 0.00, 0.00, 0.00, -60770.57, 0.00, 0.00, -0.03
95, 18097.27, -7688.26, -39890.62, -41489.35, 0.00, 0.00, 0.00, -61015.16, -0.03, -0.03, 0.00
96, 18109.36, -7683.39, -39885.66, -41471.11, 0.00, 0.00, 0.00, -60870.35, 0.00, -0.03, -0.03
97, 18127.44, -7674.74, -39845.45, -41434.54, 0.00, 0.00, 0.00, -60608.96, -0.03, 0.00, -0.03
98, 18115.80, -7678.16, -39849.11, -41447.98, 0.00, 0.00, 0.00, -60722.71, 0.00, -0.03, -0.03
99, 18095.84, -7678.18, -39888.41, -41480.30, 0.00, 0.00, 0.00, -60995.83, -0.03, -0.03, -0.03
100, 18105.90, -7674.45, -39884.47, -41465.52, 0.00, 0.00, 0.00, -60912.35, 0.00, -0.03, -0.03
101, 18121.12, -7675.28, -39845.13, -41428.49, 0.00, 0.00, 0.00, -60625.24, 0.00, -0.03, 0.00
102, 18121.18, -7671.83, -39840.62, -41432.24, 0.00, 0.00, 0.00, -60664.96, -0.03, -0.03, -0.03
103, 18106.39, -7671.57, -39878.57, -41473.41, 0.00, 0.00, 0.00, -60960.49, -0.03, -0.03, -0.03
104, 18104.53, -7673.96, -39884.52, -41472.57, 0.00, 0.00, 0.00, -60955.38, -0.03, -0.03, -0.03
105, 18119.26, -7677.29, -39844.73, -41436.54, 0.00, 0.00, 0.00, -60663.19, 0.00, -0.03, 0.00
106, 18121.16, -7679.32, -39826.61, -41431.66, 0.00, 0.00, 0.00, -60622.60, -0.03, 0.00, 0.00
107, 18104.31, -7679.43, -39860.91, -41470.35, 0.00, 0.00, 0.00, -60908.52, -0.03, -0.03, -0.03
108, 18100.11, -7675.72, -39881.99, -41478.22, 0.00, 0.00, 0.00, -60981.61, -0.03, 0.00, 0.00
109, 18115.39, -7674.61, -39850.66, -41436.85, 0.00, 0.00, 0.00, -60705.01, -0.03, -0.03, -0.03
110, 18120.92, -7676.71, -39827.32, -41419.17, 0.00, 0.00, 0.00, -60591.22, -0.03, -0.03, 0.00
111, 18103.10, -7680.71, -39861.14, -41454.86, 0.00, 0.00, 0.00, -60854.23, -0.03, 0.00, -0.03
112, 18095.28, -7680.10, -39891.52, -41475.83, 0.00, 0.00, 0.00, -61001.46, 0.00, -0.03, -0.03
113, 18113.03, -7678.25, -39868.96, -41447.93, 0.00, 0.00, 0.00, -60766.77, 0.00, -0.03, 0.00
114, 18117.34, -7680.98, -39843.14, -41432.64, 0.00, 0.00, 0.00, -60594.53, -0.03, 0.00, 0.00
115, 18102.70, -7682.67, -39873.03, -41466.33, 0.00, 0.00, 0.00, -60817.71, -0.03, -0.03, -0.03
116, 18092.15, -7681.94, -39905.48, -41492.12, 0.00, 0.00, 0.00, -61024.51, -0.03, -0.03, 0.00
117, 18098.74, -7685.02, -39893.23, -41468.36, 0.00, 0.00, 0.00, -60838.50, -0.03, -0.03, -0.03
118, 18111.60, -7678.52, -39858.46, -41434.19, 0.00, 0.00, 0.00, -60606.42, -0.03, -0.03, -0.03
119, 18103.30, -7679.08, -39866.05, -41454.91, 0.00, 0.00, 0.00, -60763.46, -0.03, -0.03, 0.00
120, 18087.81, -7685.22, -39903.54, -41488.84, 0.00, 0.00, 0.00, -61016.01, -0.03, -0.03, -0.03
121, 18088.30, -7687.41, -39897.91, -41472.68, 0.00, 0.00, 0.00, -60890.15, -0.03, -0.03, 0.00
122, 18103.48, -7684.89, -39860.13, -41438.77, 0.00, 0.00, 0.00, -60621.37, -0.03, -0.03, -0.03
123, 18106.32, -7680.44, -39862.64, -41451.84, 0.00, 0.00, 0.00, -60710.60, -0.03, -0.03, -0.03
124, 18096.06, -7676.19, -39902.27, -41488.28, 0.00, 0.00, 0.00, -60991.29, -0.03, 0.00, -0.03
125, 18093.42, -7684.02, -39904.14, -41478.93, 0.00, 0.00, 0.00, -60938.34, 0.00, 0.00, -0.03
126, 18105.00, -7688.15, -39861.00, -41439.33, 0.00, 0.00, 0.00, -60649.36, -0.03, 0.00, 0.00
127, 18110.57, -7685.07, -39850.16, -41439.48, 0.00, 0.00, 0.00, -60663.04, -0.03, -0.03, -0.03
128, 18100.64, -7678.16, -39884.59, -41474.67, 0.00, 0.00, 0.00, -60953.18, -0.03, 0.00, -0.03
129, 18093.04, -7678.32, -39894.75, -41474.33, 0.00, 0.00, 0.00, -60974.42, -0.03, -0.03, -0.03
130, 18111.30, -7676.08, -39854.86, -41429.09, 0.00, 0.00, 0.00, -60682.84, 0.00, 0.00, -0.03
131, 18112.31, -7678.32, -39832.28, -41417.00, 0.00, 0.00, 0.00, -60617.14, -0.03, 0.00, -0.03
132, 18096.55, -7678.23, -39863.80, -41449.92, 0.00, 0.00, 0.00, -60891.87, -0.03, -0.03, -0.03
133, 18100.98, -7677.65, -39891.16, -41464.59, 0.00, 0.00, 0.00, -60993.44, -0.03, -0.03, 0.00
134, 18114.66, -7679.46, -39861.65, -41430.52, 0.00, 0.00, 0.00, -60728.14, -0.03, -0.03, -0.03
135, 18120.22, -7682.70, -39832.53, -41414.52, 0.00, 0.00, 0.00, -60590.41, 0.00, 0.00, -0.03
136, 18104.42, -7685.47, -39860.71, -41452.43, 0.00, 0.00, 0.00, -60836.80, -0.03, 0.00, -0.03
137, 18095.81, -7685.69, -39895.25, -41478.69, 0.00, 0.00, 0.00, -61006.87, -0.03, -0.03, -0.03
138, 18104.94, -7688.71, -39874.89, -41455.40, 0.00, 0.00, 0.00, -60788.52, 0.00, -0.03, -0.03
139, 18114.26, -7686.30, -39841.96, -41436.31, 0.00, 0.00, 0.00, -60596.49, 0.00, -0.03, 0.00
140, 18104.53, -7683.70, -39861.79, -41464.81, 0.00, 0.00, 0.00, -60796.30, -0.03, -0.03, -0.03
141, 18095.28, -7685.45, -39901.50, -41500.15, 0.00, 0.00, 0.00, -61025.36, -0.03, -0.03, 0.00
142, 18102.59, -7683.70, -39892.36, -41478.67, 0.00, 0.00, 0.00, -60861.32, 0.00, 0.00, 0.00
143, 18111.69, -7687.97, -39855.86, -41443.80, 0.00, 0.00, 0.00, -60616.99, -0.03, -0.03, -0.03
144, 18099.53, -7697.25, -39862.70, -41457.84, 0.00, 0.00, 0.00, -60750.00, -0.03, -0.03, 0.00
145, 18088.17, -7695.06, -39902.07, -41489.42, 0.00, 0.00, 0.00, -61014.61, 0.00, 0.00, -0.03
146, 18097.04, -7687.39, -39901.64, -41476.77, 0.00, 0.00, 0.00, -60912.61, -0.03, 0.00, -0.03
147, 18111.93, -7685.98, -39862.99, -41438.84, 0.00, 0.00, 0.00, -60635.56, -0.03, -0.03, -0.03
148, 18108.11, -7681.22, -39858.50, -41439.66, 0.00, 0.00, 0.00, -60696.76, 0.00, -0.03, -0.03
149, 18095.37, -7680.44, -39896.50, -41471.76, 0.00, 0.00, 0.00, -60980.21, -0.03, 0.00, -0.03
150, 18093.58, -7680.80, -39902.04, -41466.08, 0.00, 0.00, 0.00, -60949.79, -0.03, -0.03, 0.00
151, 18111.15, -7678.36, -39862.41, -41427.44, 0.00, 0.00, 0.00, -60658.88, 0.00, -0.03, -0.03
152, 18110.30, -7681.38, -39848.06, -41427.41, 0.00, 0.00, 0.00, -60649.20, -0.03, 0.00, -0.03
153, 18095.68, -7683.28, -39876.94, -41463.51, 0.00, 0.00, 0.00, -60930.45, 0.00, 0.00, -0.03
154, 18094.27, -7680.31, -39887.63, -41466.44, 0.00, 0.00, 0.00, -60973.01, 0.00, 0.00, 0.00
155, 18105.74, -7675.03, -39854.99, -41427.14, 0.00, 0.00, 0.00, -60691.76, 0.00, -0.03, -0.03
156, 18118.95, -7671.14, -39830.07, -41412.19, 0.00, 0.00, 0.00, -60597.41, 0.00, -0.03, 0.00
157, 18101.36, -7678.09, -39854.66, -41444.56, 0.00, 0.00, 0.00, -60858.43, 0.00, -0.03, -0.03
158, 18094.77, -7679.54, -39878.26, -41459.54, 0.00, 0.00, 0.00, -60979.22, -0.03, -0.03, -0.03
159, 18107.15, -7681.00, -39852.00, -41429.61, 0.00, 0.00, 0.00, -60732.75, 0.00, 0.00, -0.03
160, 18112.45, -7682.63, -39815.25, -41408.04, 0.00, 0.00, 0.00, -60574.61, -0.03, -0.03, -0.03
161, 18099.84, -7680.08, -39844.91, -41443.62, 0.00, 0.00, 0.00, -60812.19, 0.00, -0.03, -0.03
162, 18091.86, -7678.81, -39884.65, -41473.68, 0.00, 0.00, 0.00, -61003.32, -0.03, 0.00, 0.00
163, 18102.21, -7680.86, -39865.63, -41447.26, 0.00, 0.00, 0.00, -60797.68, -0.03, -0.03, -0.03
164, 18115.19, -7685.07, -39829.45, -41421.56, 0.00, 0.00, 0.00, -60583.91, 0.00, -0.03, 0.00
165, 18102.16, -7691.61, -39851.35, -41452.23, 0.00, 0.00, 0.00, -60770.28, 0.00, -0.03, -0.03
166, 18090.45, -7693.31, -39896.54, -41489.22, 0.00, 0.00, 0.00, -61017.71, -0.03, 0.00, -0.03
167, 18098.59, -7689.78, -39891.25, -41473.91, 0.00, 0.00, 0.00, -60877.81, -0.03, -0.03, -0.03
168, 18114.46, -7688.13, -39856.31, -41440.22, 0.00, 0.00, 0.00, -60624.21, -0.03, 0.00, 0.00
169, 18107.91, -7688.58, -39864.38, -41455.45, 0.00, 0.00, 0.00, -60737.93, -0.03, 0.00, 0.00
170, 18087.84, -7692.11, -39901.93, -41486.13, 0.00, 0.00, 0.00, -61006.43, 0.00, -0.03, -0.03
171, 18094.38, -7692.84, -39903.50, -41473.21, 0.00, 0.00, 0.00, -60927.19, 0.00, -0.03, 0.00
172, 18113.81, -7688.02, -39867.66, -41436.45, 0.00, 0.00, 0.00, -60648.26, -0.03, -0.03, -0.03
173, 18111.51, -7686.18, -39862.95, -41441.90, 0.00, 0.00, 0.00, -60685.48, -0.03, -0.03, -0.03
174, 18097.85, -7685.89, -39896.79, -41477.59, 0.00, 0.00, 0.00, -60971.73, 0.00, -0.03, 0.00
175, 18093.18, -7689.71, -39904.81, -41476.84, 0.00, 0.00, 0.00, -60971.46, 0.00, -0.03, -0.03
176, 18108.64, -7687.86, -39865.03, -41435.48, 0.00, 0.00, 0.00, -60683.55, -0.03, 0.00, -0.03
177, 18113.67, -7684.24, -39849.29, -41429.92, 0.00, 0.00, 0.00, -60645.60, 0.00, -0.03, -0.03
178, 18100.58, -7680.62, -39884.59, -41466.93, 0.00, 0.00, 0.00, -60930.32, -0.03, -0.03, 0.00
179, 18100.62, -7678.70, -39899.61, -41474.67, 0.00, 0.00, 0.00, -60998.40, -0.03, 0.00, -0.03
180, 18108.02, -7683.05, -39865.09, -41441.47, 0.00, 0.00, 0.00, -60724.64, -0.03, -0.03, -0.03
181, 18104.02, -7697.47, -39838.18, -41433.18, 0.00, 0.00, 0.00, -60612.27, 0.00, -0.03, -0.03
182, 18095.32, -7694.97, -39860.13, -41465.97, 0.00, 0.00, 0.00, -60866.21, -0.03, -0.03, -0.03
183, 18087.93, -7692.53, -39886.17, -41483.92, 0.00, 0.00, 0.00, -61006.18, 0.00, -0.03, -0.03
184, 18095.37, -7692.62, -39867.11, -41454.82, 0.00, 0.00, 0.00, -60772.80, -0.03, -0.03, -0.03
185, 18112.42, -7685.36, -39833.87, -41432.67, 0.00, 0.00, 0.00, -60598.28, -0.03, 0.00, 0.00
186, 18103.59, -7682.96, -39856.91, -41459.20, 0.00, 0.00, 0.00, -60813.42, 0.00, -0.03, 0.00
187, 18088.06, -7687.52, -39896.88, -41485.95, 0.00, 0.00, 0.00, -61021.69, 0.00, -0.03, 0.00
188, 18095.66, -7692.89, -39881.05, -41455.64, 0.00, 0.00, 0.00, -60833.64, -0.03, -0.03, -0.03
189, 18105.31, -7693.83, -39847.44, -41425.54, 0.00, 0.00, 0.00, -60607.18, 0.00, -0.03, 0.00
190, 18102.90, -7686.25, -39857.38, -41443.95, 0.00, 0.00, 0.00, -60758.48, -0.03, -0.03, 0.00
191, 18086.79, -7689.98, -39896.72, -41476.25, 0.00, 0.00, 0.00, -61009.80, -0.03, -0.03, 0.00
192, 18092.11, -7688.75, -39893.14, -41459.20, 0.00, 0.00, 0.00, -60888.43, -0.03, 0.00, -0.03
193, 18117.16, -7683.79, -39848.93, -41416.75, 0.00, 0.00, 0.00, -60614.26, 0.00, -0.03, 0.00
194, 18114.88, -7683.01, -39849.11, -41428.20, 0.00, 0.00, 0.00, -60700.23, 0.00, 0.00, -0.03
195, 18095.93, -7687.28, -39892.21, -41469.93, 0.00, 0.00, 0.00, -60982.96, 0.00, 0.00, 0.00
196, 18097.92, -7683.17, -39891.07, -41463.89, 0.00, 0.00, 0.00, -60930.56, 0.00, -0.03, 0.00
197, 18113.21, -7681.31, -39851.73, -41429.02, 0.00, 0.00, 0.00, -60647.14, -0.03, 0.00, -0.03
198, 18109.25, -7682.50, -39841.71, -41433.72, 0.00, 0.00, 0.00, -60661.61, 0.00, -0.03, -0.03
199, 18094.56, -7684.24, -39880.41, -41474.04, 0.00, 0.00, 0.00, -60950.12, 0.00, -0.03, -0.03
200, 18092.19, -7684.55, -39893.53, -41473.79, 0.00, 0.00, 0.00, -60968.67, 0.00, -0.03, 0.00
201, 18102.81, -7688.35, -39854.88, -41429.16, 0.00, 0.00, 0.00, -60680.87, -0.03, -0.03, -0.03
202, 18107.53, -7686.14, -39835.14, -41415.34, 0.00, 0.00, 0.00, -60614.64, 0.00, 0.00, 0.00
203, 18102.43, -7680.84, -39870.39, -41448.34, 0.00, 0.00, 0.00, -60888.36, -0.03, 0.00, 0.00
204, 18093.24, -7688.66, -39892.54, -41462.82, 0.00, 0.00, 0.00, -60987.11, -0.03, -0.03, 0.00
205, 18106.63, -7688.37, -39861.25, -41425.40, 0.00, 0.00, 0.00, -60726.54, -0.03, -0.03, -0.03
206, 18109.27, -7690.23, -39833.20, -41405.42, 0.00, 0.00, 0.00, -60590.75, 0.00, -0.03, -0.03
207, 18095.05, -7694.14, -39858.55, -41435.64, 0.00, 0.00, 0.00, -60836.66, -0.03, -0.03, -0.03
208, 18086.56, -7694.43, -39888.54, -41455.33, 0.00, 0.00, 0.00, -61003.77, -0.03, 0.00, 0.00
209, 18092.35, -7697.65, -39867.33, -41428.00, 0.00, 0.00, 0.00, -60783.45, -0.03, 0.00, -0.03
210, 18096.51, -7704.47, -39833.29, -41408.82, 0.00, 0.00, 0.00, -60588.40, -0.03, -0.03, -0.03
211, 18083.68, -7712.38, -39854.93, -41445.52, 0.00, 0.00, 0.00, -60789.75, -0.03, 0.00, 0.00
212, 18074.49, -7710.17, -39895.45, -41483.85, 0.00, 0.00, 0.00, -61018.29, 0.00, -0.03, -0.03
213, 18088.35, -7704.71, -39887.02, -41466.04, 0.00, 0.00, 0.00, -60855.13, -0.03, 0.00, -0.03
214, 18098.77, -7704.51, -39851.59, -41436.24, 0.00, 0.00, 0.00, -60612.39, 0.00, 0.00, -0.03
215, 18090.63, -7702.19, -39860.78, -41456.02, 0.00, 0.00, 0.00, -60746.27, -0.03, -0.03, 0.00
216, 18082.40, -7699.86, -39904.10, -41494.36, 0.00, 0.00, 0.00, -61014.98, 0.00, 0.00, -0.03
217, 18087.95, -7695.62, -39903.27, -41482.67, 0.00, 0.00, 0.00, -60916.77, 0.00, -0.03, -0.03
218, 18098.72, -7694.45, -39865.00, -41444.47, 0.00, 0.00, 0.00, -60640.53, -0.03, -0.03, -0.03
219, 18093.13, -7697.14, -39861.25, -41450.62, 0.00, 0.00, 0.00, -60700.94, 0.00, -0.03, 0.00
220, 18079.25, -7697.99, -39898.46, -41485.82, 0.00, 0.00, 0.00, -60984.16, -0.03, 0.00, -0.03
221, 18085.49, -7691.77, -39905.75, -41478.62, 0.00, 0.00, 0.00, -60961.34, 0.00, 0.00, 0.00
222, 18100.35, -7693.78, -39871.33, -41440.71, 0.00, 0.00, 0.00, -60679.48, 0.00, -0.03, -0.03
223, 18096.93, -7698.72, -39857.09, -41435.48, 0.00, 0.00, 0.00, -60665.20, -0.03, -0.03, -0.03
224, 18077.40, -7701.56, -39890.51, -41465.30, 0.00, 0.00, 0.00, -60944.44, -0.03, -0.03, 0.00
225, 18082.54, -7701.54, -39905.73, -41466.91, 0.00, 0.00, 0.00, -60992.63, -0.03, 0.00, 0.00
226, 18098.45, -7700.00, -39872.85, -41429.23, 0.00, 0.00, 0.00, -60715.74, -0.03, -0.03, -0.03
227, 18102.70, -7698.97, -39848.49, -41418.99, 0.00, 0.00, 0.00, -60621.93, -0.03, -0.03, -0.03
228, 18082.54, -7701.49, -39882.37, -41458.71, 0.00, 0.00, 0.00, -60892.12, -0.03, -0.03, -0.03
229, 18075.36, -7699.33, -39909.06, -41476.84, 0.00, 0.00, 0.00, -61015.77, 0.00, 0.00, -0.03
230, 18095.35, -7695.86, -39886.33, -41448.25, 0.00, 0.00, 0.00, -60771.08, 0.00, 0.00, -0.03
231, 18096.57, -7700.78, -39859.02, -41431.73, 0.00, 0.00, 0.00, -60612.21, 0.00, -0.03, -0.03
232, 18081.51, -7702.57, -39875.64, -41461.41, 0.00, 0.00, 0.00, -60837.49, -0.03, -0.03, -0.03
233, 18073.55, -7701.20, -39907.59, -41488.17, 0.00, 0.00, 0.00, -61025.78, -0.03, -0.03, 0.00
234, 18081.29, -7701.36, -39889.21, -41463.78, 0.00, 0.00, 0.00, -60827.07, -0.03, -0.03, -0.03
235, 18094.88, -7701.67, -39847.10, -41434.70, 0.00, 0.00, 0.00, -60609.88, -0.03, 0.00, -0.03
236, 18087.05, -7699.13, -39860.22, -41457.07, 0.00, 0.00, 0.00, -60786.91, -0.03, -0.03, -0.03
237, 18077.73, -7701.65, -39899.43, -41492.39, 0.00, 0.00, 0.00, -61030.36, -0.03, -0.03, -0.03
238, 18081.40, -7703.57, -39893.48, -41475.05, 0.00, 0.00, 0.00, -60890.00, -0.03, -0.03, -0.03
239, 18092.87, -7703.44, -39854.66, -41438.99, 0.00, 0.00, 0.00, -60627.50, 0.00, -0.03, -0.03
240, 18089.42, -7704.00, -39863.02, -41453.21, 0.00, 0.00, 0.00, -60738.38, -0.03, -0.03, -0.03
241, 18079.28, -7701.72, -39903.16, -41486.20, 0.00, 0.00, 0.00, -61012.97, -0.03, 0.00, 0.00
242, 18084.93, -7698.95, -39907.86, -41473.95, 0.00, 0.00, 0.00, -60939.01, 0.00, 0.00, 0.00
243, 18103.91, -7694.63, -39868.89, -41434.12, 0.00, 0.00, 0.00, -60655.52, -0.03, 0.00, -0.03
244, 18102.41, -7695.28, -39859.64, -41436.94, 0.00, 0.00, 0.00, -60690.84, -0.03, 0.00, 0.00
245, 18085.60, -7696.35, -39894.78, -41474.40, 0.00, 0.00, 0.00, -60976.94, -0.03, -0.03, -0.03
246, 18087.79, -7693.05, -39901.08, -41473.82, 0.00, 0.00, 0.00, -60973.66, -0.03, -0.03, -0.03
247, 18103.26, -7691.17, -39860.78, -41436.98, 0.00, 0.00, 0.00, -60684.49, 0.00, -0.03, -0.03
248, 18106.43, -7689.20, -39840.22, -41431.48, 0.00, 0.00, 0.00, -60643.23, -0.03, -0.03, -0.03
249, 18093.69, -7688.55, -39871.51, -41468.39, 0.00, 0.00, 0.00, -60921.67, -0.03, 0.00, -0.03
250, 18090.34, -7687.81, -39887.63, -41475.14, 0.00, 0.00, 0.00, -60989.39, 0.00, 0.00, -0.03
251, 18109.34, -7685.58, -39855.68, -41437.63, 0.00, 0.00, 0.00, -60712.28, 0.00, 0.00, 0.00
252, 18119.82, -7681.22, -39832.11, -41421.85, 0.00, 0.00, 0.00, -60598.75, -0.03, -0.03, -0.03
253, 18106.43, -7680.75, -39863.39, -41453.90, 0.00, 0.00, 0.00, -60854.86, 0.00, -0.03, -0.03
254, 18097.89, -7678.61, -39892.43, -41471.87, 0.00, 0.00, 0.00, -61000.52, -0.03, -0.03, -0.03
255, 18114.50, -7676.10, -39872.40, -41439.93, 0.00, 0.00, 0.00, -60768.11, -0.03, -0.03, -0.03
0, 18116.78, -7687.30, -39842.54, -41419.08, 0.00, 0.00, 0.00, -60590.86, 0.00, 0.00, -0.03
1, 18105.38, -7688.53, -39859.86, -41447.84, 0.00, 0.00, 0.00, -60806.73, -0.03, -0.03, -0.03
2, 18091.26, -7690.68, -39899.88, -41478.49, 0.00, 0.00, 0.00, -61020.80, -0.03, 0.00, 0.00
3, 18096.89, -7693.09, -39889.46, -41458.26, 0.00, 0.00, 0.00, -60842.96, 0.00, -0.03, -0.03
4, 18107.39, -7698.57, -39855.82, -41427.71, 0.00, 0.00, 0.00, -60614.71, 0.00, -0.03, -0.03
5, 18095.39, -7701.65, -39869.34, -41445.96, 0.00, 0.00, 0.00, -60774.21, -0.03, 0.00, 0.00
6, 18083.25, -7696.06, -39910.65, -41483.92, 0.00, 0.00, 0.00, -61031.48, 0.00, 0.00, -0.03
7, 18095.32, -7692.08, -39903.47, -41470.91, 0.00, 0.00, 0.00, -60910.98, 0.00, -0.03, -0.03
8, 18104.64, -7692.46, -39860.60, -41438.79, 0.00, 0.00, 0.00, -60641.46, 0.00, -0.03, 0.00
9, 18107.21, -7690.83, -39857.16, -41452.89, 0.00, 0.00, 0.00, -60724.37, -0.03, -0.03, -0.03
10, 18094.56, -7692.73, -39898.46, -41494.47, 0.00, 0.00, 0.00, -61005.93, -0.03, 0.00, -0.03
11, 18099.23, -7691.93, -39902.13, -41489.39, 0.00, 0.00, 0.00, -60954.39, -0.03, 0.00, -0.03
12, 18117.85, -7687.79, -39859.95, -41447.00, 0.00, 0.00, 0.00, -60664.02, -0.03, -0.03, -0.03
13, 18113.94, -7684.55, -39847.55, -41447.31, 0.00, 0.00, 0.00, -60669.72, -0.03, -0.03, -0.03
14, 18100.15, -7684.82, -39884.68, -41482.13, 0.00, 0.00, 0.00, -60954.75, 0.00, -0.03, 0.00
15, 18100.13, -7685.96, -39895.27, -41480.37, 0.00, 0.00, 0.00, -60975.11, 0.00, -0.03, -0.03
16, 18110.08, -7685.74, -39859.86, -41439.62, 0.00, 0.00, 0.00, -60687.96, -0.03, -0.03, -0.03
17, 18120.47, -7682.09, -39839.57, -41430.23, 0.00, 0.00, 0.00, -60622.98, -0.03, -0.03, 0.00
18, 18106.32, -7681.69, -39873.66, -41467.54, 0.00, 0.00, 0.00, -60899.54, -0.03, 0.00, -0.03
19, 18098.05, -7683.28, -39895.20, -41476.92, 0.00, 0.00, 0.00, -60996.28, -0.03, 0.00, -0.03
20, 18106.19, -7685.74, -39860.89, -41441.72, 0.00, 0.00, 0.00, -60734.94, -0.03, -0.03, -0.03
21, 18114.14, -7687.70, -39837.63, -41428.38, 0.00, 0.00, 0.00, -60602.15, -0.03, -0.03, 0.00
22, 18100.73, -7696.85, -39870.86, -41471.22, 0.00, 0.00, 0.00, -60854.10, -0.03, -0.03, -0.03
23, 18093.16, -7693.13, -39900.48, -41492.95, 0.00, 0.00, 0.00, -61021.45, 0.00, -0.03, -0.03
24, 18103.55, -7689.02, -39879.69, -41460.16, 0.00, 0.00, 0.00, -60799.27, 0.00, -0.03, 0.00
25, 18110.79, -7687.68, -39847.84, -41434.93, 0.00, 0.00, 0.00, -60602.19, 0.00, -0.03, -0.03
26, 18099.28, -7689.18, -39866.55, -41458.21, 0.00, 0.00, 0.00, -60799.11, -0.03, -0.03, -0.03
27, 18089.42, -7690.59, -39901.91, -41484.88, 0.00, 0.00, 0.00, -61021.27, 0.00, 0.00, -0.03
28, 18099.79, -7693.05, -39889.21, -41460.83, 0.00, 0.00, 0.00, -60854.77, -0.03, 0.00, 0.00
29, 18114.39, -7691.48, -39849.98, -41421.22, 0.00, 0.00, 0.00, -60606.33, 0.00, 0.00, -0.03
30, 18107.53, -7690.14, -39859.46, -41435.82, 0.00, 0.00, 0.00, -60740.21, -0.03, -0.03, -0.03
31, 18091.57, -7691.73, -39900.34, -41470.91, 0.00, 0.00, 0.00, -61004.41, 0.00, -0.03, -0.03
32, 18098.38, -7689.16, -39895.89, -41455.89, 0.00, 0.00, 0.00, -60905.95, 0.00, -0.03, -0.03
33, 18114.43, -7685.00, -39854.30, -41418.47, 0.00, 0.00, 0.00, -60626.96, -0.03, -0.03, -0.03
34, 18113.76, -7682.56, -39848.09, -41426.05, 0.00, 0.00, 0.00, -60685.92, -0.03, 0.00, -0.03
35, 18101.25, -7678.54, -39885.37, -41466.64, 0.00, 0.00, 0.00, -60970.66, -0.03, -0.03, -0.03
36, 18099.62, -7680.60, -39895.52, -41471.25, 0.00, 0.00, 0.00, -60948.49, -0.03, -0.03, -0.03
37, 18120.29, -7675.61, -39856.11, -41431.95, 0.00, 0.00, 0.00, -60657.45, -0.03, 0.00, 0.00
38, 18125.12, -7670.94, -39839.17, -41425.74, 0.00, 0.00, 0.00, -60636.05, -0.03, -0.03, -0.03
39, 18109.32, -7673.24, -39869.52, -41460.61, 0.00, 0.00, 0.00, -60916.64, -0.03, 0.00, -0.03
40, 18108.18, -7671.36, -39881.90, -41464.30, 0.00, 0.00, 0.00, -60962.53, -0.03, -0.03, 0.00
41, 18119.37, -7669.98, -39848.24, -41426.18, 0.00, 0.00, 0.00, -60684.83, -0.03, -0.03, -0.03
42, 18130.64, -7667.74, -39825.55, -41410.72, 0.00, 0.00, 0.00, -60594.84, -0.03, 0.00, -0.03
43, 18117.00, -7668.57, -39858.90, -41442.68, 0.00, 0.00, 0.00, -60860.29, 0.00, -0.03, 0.00
44, 18105.65, -7671.88, -39892.63, -41457.68, 0.00, 0.00, 0.00, -60987.67, 0.00, -0.03, 0.00
45, 18117.38, -7672.75, -39865.54, -41423.19, 0.00, 0.00, 0.00, -60741.76, -0.03, -0.03, 0.00
46, 18121.68, -7676.62, -39840.73, -41406.43, 0.00, 0.00, 0.00, -60589.14, -0.03, -0.03, -0.03
47, 18104.26, -7682.63, -39868.11, -41439.62, 0.00, 0.00, 0.00, -60822.54, 0.00, -0.03, 0.00
48, 18091.63, -7684.24, -39902.87, -41464.63, 0.00, 0.00, 0.00, -61012.23, -0.03, -0.03, -0.03
49, 18104.82, -7688.08, -39886.39, -41442.17, 0.00, 0.00, 0.00, -60808.97, -0.03, -0.03, 0.00
50, 18119.29, -7689.45, -39850.07, -41416.48, 0.00, 0.00, 0.00, -60593.07, -0.03, -0.03, 0.00
51, 18105.58, -7692.55, -39866.70, -41448.16, 0.00, 0.00, 0.00, -60772.29, 0.00, -0.03, -0.03
52, 18091.12, -7691.59, -39904.66, -41483.07, 0.00, 0.00, 0.00, -61013.91, -0.03, -0.03, 0.00
53, 18099.08, -7686.25, -39892.25, -41462.46, 0.00, 0.00, 0.00, -60870.70, 0.00, -0.03, 0.00
54, 18111.13, -7685.89, -39854.37, -41431.59, 0.00, 0.00, 0.00, -60616.36, -0.03, -0.03, -0.03
55, 18101.11, -7691.12, -39860.85, -41451.62, 0.00, 0.00, 0.00, -60730.71, 0.00, -0.03, 0.00
56, 18084.64, -7693.98, -39901.86, -41489.35, 0.00, 0.00, 0.00, -61008.23, 0.00, -0.03, 0.00
57, 18088.19, -7690.25, -39904.50, -41480.19, 0.00, 0.00, 0.00, -60935.50, -0.03, 0.00, 0.00
58, 18111.37, -7686.41, -39863.93, -41440.07, 0.00, 0.00, 0.00, -60653.22, -0.03, 0.00, -0.03
59, 18109.40, -7689.40, -39857.27, -41445.03, 0.00, 0.00, 0.00, -60686.08, 0.00, -0.03, -0.03
60, 18091.93, -7687.12, -39894.98, -41477.66, 0.00, 0.00, 0.00, -60969.95, 0.00, 0.00, -0.03
61, 18099.46, -7681.51, -39904.95, -41474.35, 0.00, 0.00, 0.00, -60968.85, -0.03, -0.03, 0.00
62, 18115.17, -7681.38, -39868.00, -41436.58, 0.00, 0.00, 0.00, -60683.46, 0.00, -0.03, -0.03
63, 18118.73, -7677.13, -39849.18, -41430.81, 0.00, 0.00, 0.00, -60641.49, -0.03, -0.03, 0.00
64, 18106.39, -7672.82, -39879.55, -41463.73, 0.00, 0.00, 0.00, -60918.09, 0.00, -0.03, 0.00
65, 18106.12, -7670.54, -39893.70, -41465.99, 0.00, 0.00, 0.00, -60982.80, -0.03, -0.03, 0.00
66, 18123.78, -7665.60, -39859.13, -41424.49, 0.00, 0.00, 0.00, -60707.63, -0.03, -0.03, 0.00
67, 18127.58, -7666.58, -39828.21, -41404.93, 0.00, 0.00, 0.00, -60586.21, -0.03, 0.00, 0.00
68, 18116.78, -7666.00, -39851.89, -41434.63, 0.00, 0.00, 0.00, -60838.85, 0.00, 0.00, -0.03
69, 18111.75, -7664.01, -39879.42, -41451.93, 0.00, 0.00, 0.00, -60981.95, 0.00, 0.00, 0.00
70, 18123.42, -7665.15, -39855.30, -41423.41, 0.00, 0.00, 0.00, -60748.73, -0.03, 0.00, -0.03
71, 18129.43, -7668.59, -39823.97, -41401.87, 0.00, 0.00, 0.00, -60572.51, -0.03, -0.03, 0.00
72, 18116.58, -7671.68, -39844.51, -41432.96, 0.00, 0.00, 0.00, -60787.33, -0.03, 0.00, 0.00
73, 18113.07, -7669.84, -39881.39, -41463.33, 0.00, 0.00, 0.00, -60994.54, -0.03, -0.03, -0.03
74, 18119.31, -7669.08, -39870.23, -41444.29, 0.00, 0.00, 0.00, -60815.27, 0.00, -0.03, 0.00
75, 18130.21, -7668.17, -39833.09, -41416.46, 0.00, 0.00, 0.00, -60583.89, -0.03, -0.03, 0.00
76, 18120.76, -7671.54, -39849.40, -41442.39, 0.00, 0.00, 0.00, -60743.30, 0.00, -0.03, -0.03
77, 18104.31, -7673.20, -39889.88, -41476.16, 0.00, 0.00, 0.00, -60998.47, 0.00, 0.00, 0.00
78, 18104.71, -7677.35, -39886.60, -41460.29, 0.00, 0.00, 0.00, -60880.43, -0.03, -0.03, 0.00
79, 18118.75, -7679.79, -39850.84, -41428.20, 0.00, 0.00, 0.00, -60615.96, 0.00, -0.03, 0.00
80, 18115.33, -7679.70, -39855.62, -41443.84, 0.00, 0.00, 0.00, -60705.19, 0.00, -0.03, -0.03
81, 18099.73, -7676.26, -39895.14, -41479.76, 0.00, 0.00, 0.00, -60984.96, -0.03, -0.03, -0.03
82, 18098.05, -7676.04, -39900.39, -41470.44, 0.00, 0.00, 0.00, -60935.48, -0.03, -0.03, -0.03
83, 18113.94, -7676.19, -39859.77, -41430.88, 0.00, 0.00, 0.00, -60649.47, -0.03, 0.00, -0.03
84, 18114.26, -7676.24, -39850.68, -41432.69, 0.00, 0.00, 0.00, -60659.52, -0.03, -0.03, 0.00
85, 18099.57, -7676.13, -39892.32, -41472.81, 0.00, 0.00, 0.00, -60949.70, -0.03, 0.00, 0.00
86, 18099.17, -7676.77, -39910.63, -41477.80, 0.00, 0.00, 0.00, -60980.32, -0.03, 0.00, -0.03
87, 18113.83, -7678.90, -39872.83, -41442.95, 0.00, 0.00, 0.00, -60699.87, -0.03, 0.00, 0.00
88, 18123.67, -7672.59, -39854.81, -41435.53, 0.00, 0.00, 0.00, -60637.96, 0.00, -0.03, -0.03
89, 18114.48, -7671.83, -39884.23, -41469.59, 0.00, 0.00, 0.00, -60909.71, -0.03, -0.03, 0.00
90, 18109.47, -7672.03, -39903.25, -41480.54, 0.00, 0.00, 0.00, -61005.75, -0.03, -0.03, -0.03
91, 18124.58, -7670.90, -39870.95, -41445.07, 0.00, 0.00, 0.00, -60741.89, -0.03, -0.03, -0.03
92, 18129.41, -7672.42, -39843.70, -41429.38, 0.00, 0.00, 0.00, -60605.84, 0.00, -0.03, 0.00
93, 18116.18, -7673.31, -39871.04, -41464.03, 0.00, 0.00, 0.00, -60848.98, -0.03, -0.03, 0.00
94, 18108.69, -7671.03, -39899.41, -41483.90, 0.00, 0.00, 0.00, -61013.20, -0.03, 0.00, 0.00
95, 18116.33, -7671.65, -39877.43, -41452.36, 0.00, 0.00, 0.00, -60792.94, -0.03, -0.03, 0.00
96, 18133.32, -7669.93, -39842.68, -41423.61, 0.00, 0.00, 0.00, -60592.47, -0.03, -0.03, 0.00
97, 18120.65, -7672.08, -39858.66, -41447.15, 0.00, 0.00, 0.00, -60782.19, 0.00, -0.03, -0.03
98, 18108.11, -7672.21, -39892.99, -41473.26, 0.00, 0.00, 0.00, -61002.25, -0.03, 0.00, 0.00
99, 18118.35, -7669.96, -39885.01, -41455.53, 0.00, 0.00, 0.00, -60844.89, -0.03, -0.03, 0.00
100, 18134.95, -7667.05, -39849.76, -41426.83, 0.00, 0.00, 0.00, -60603.91, -0.03, -0.03, -0.03
101, 18122.48, -7671.48, -39857.03, -41445.79, 0.00, 0.00, 0.00, -60735.72, 0.00, -0.03, -0.03
102, 18101.20, -7680.26, -39898.80, -41483.14, 0.00, 0.00, 0.00, -61003.96, -0.03, -0.03, -0.03
103, 18103.30, -7678.29, -39904.81, -41479.36, 0.00, 0.00, 0.00, -60919.30, 0.00, 0.00, -0.03
104, 18117.90, -7678.18, -39871.00, -41450.64, 0.00, 0.00, 0.00, -60649.73, -0.03, -0.03, 0.00
105, 18112.11, -7685.29, -39870.57, -41461.64, 0.00, 0.00, 0.00, -60714.36, 0.00, -0.03, 0.00
106, 18096.73, -7688.02, -39911.88, -41500.50, 0.00, 0.00, 0.00, -61003.05, -0.03, -0.03, 0.00
107, 18100.69, -7689.85, -39917.40, -41493.33, 0.00, 0.00, 0.00, -60979.16, -0.03, 0.00, 0.00
108, 18114.93, -7692.26, -39880.61, -41458.42, 0.00, 0.00, 0.00, -60691.76, -0.03, 0.00, -0.03
109, 18121.36, -7684.22, -39865.00, -41458.37, 0.00, 0.00, 0.00, -60670.39, -0.03, 0.00, -0.03
110, 18108.24, -7680.91, -39898.11, -41494.85, 0.00, 0.00, 0.00, -60952.89, -0.03, -0.03, -0.03
111, 18106.72, -7676.57, -39911.23, -41494.54, 0.00, 0.00, 0.00, -61000.90, -0.03, 0.00, -0.03
112, 18120.31, -7676.42, -39875.89, -41452.74, 0.00, 0.00, 0.00, -60719.00, -0.03, -0.03, -0.03
113, 18128.92, -7671.61, -39844.20, -41435.57, 0.00, 0.00, 0.00, -60621.44, -0.03, -0.03, -0.03
114, 18122.10, -7668.30, -39874.48, -41471.29, 0.00, 0.00, 0.00, -60884.74, -0.03, -0.03, -0.03
115, 18120.89, -7660.75, -39897.95, -41486.71, 0.00, 0.00, 0.00, -61006.45, 0.00, -0.03, -0.03
116, 18135.82, -7660.61, -39865.88, -41448.02, 0.00, 0.00, 0.00, -60752.51, -0.03, 0.00, -0.03
117, 18141.32, -7665.64, -39833.11, -41422.30, 0.00, 0.00, 0.00, -60586.79, -0.03, 0.00, -0.03
118, 18134.55, -7660.32, -39858.05, -41451.80, 0.00, 0.00, 0.00, -60812.21, -0.03, 0.00, -0.03
119, 18123.67, -7663.00, -39894.53, -41481.59, 0.00, 0.00, 0.00, -61006.11, -0.03, -0.03, 0.00
120, 18129.12, -7668.03, -39875.20, -41454.37, 0.00, 0.00, 0.00, -60804.95, -0.03, -0.03, -0.03
121, 18135.02, -7671.72, -39836.13, -41422.41, 0.00, 0.00, 0.00, -60583.64, 0.00, -0.03, -0.03
122, 18125.74, -7673.51, -39846.77, -41442.34, 0.00, 0.00, 0.00, -60754.97, -0.03, -0.03, -0.03
123, 18121.34, -7668.75, -39890.24, -41478.46, 0.00, 0.00, 0.00, -61001.39, 0.00, 0.00, -0.03
124, 18125.59, -7671.36, -39889.57, -41463.91, 0.00, 0.00, 0.00, -60868.22, -0.03, -0.03, -0.03
125, 18132.85, -7678.29, -39852.76, -41427.88, 0.00, 0.00, 0.00, -60611.00, 0.00, 0.00, -0.03
126, 18123.44, -7680.33, -39861.43, -41445.70, 0.00, 0.00, 0.00, -60724.23, 0.00, -0.03, -0.03
127, 18113.23, -7676.42, -39902.94, -41485.26, 0.00, 0.00, 0.00, -61002.98, 0.00, 0.00, 0.00
128, 18114.17, -7678.14, -39903.99, -41477.93, 0.00, 0.00, 0.00, -60934.36, 0.00, 0.00, -0.03
129, 18123.38, -7682.56, -39865.14, -41444.58, 0.00, 0.00, 0.00, -60653.42, 0.00, 0.00, 0.00
130, 18123.71, -7684.24, -39857.32, -41453.23, 0.00, 0.00, 0.00, -60684.22, 0.00, -0.03, -0.03
131, 18120.07, -7679.50, -39892.61, -41492.41, 0.00, 0.00, 0.00, -60970.84, 0.00, 0.00, 0.00
132, 18120.96, -7676.75, -39899.85, -41492.19, 0.00, 0.00, 0.00, -60970.19, -0.03, -0.03, -0.03
133, 18134.84, -7672.93, -39862.19, -41453.84, 0.00, 0.00, 0.00, -60685.52, 0.00, -0.03, -0.03
134, 18134.51, -7672.64, -39843.08, -41443.84, 0.00, 0.00, 0.00, -60637.44, 0.00, 0.00, -0.03
135, 18117.16, -7677.65, -39871.73, -41476.61, 0.00, 0.00, 0.00, -60914.65, -0.03, 0.00, 0.00
136, 18114.14, -7681.31, -39888.56, -41483.43, 0.00, 0.00, 0.00, -60991.47, -0.03, 0.00, 0.00
137, 18128.25, -7681.09, -39855.44, -41444.43, 0.00, 0.00, 0.00, -60718.76, 0.00, 0.00, -0.03
138, 18137.86, -7681.78, -39829.80, -41435.48, 0.00, 0.00, 0.00, -60602.11, -0.03, -0.03, -0.03
139, 18121.27, -7681.56, -39860.91, -41475.18, 0.00, 0.00, 0.00, -60859.75, 0.00, -0.03, 0.00
140, 18116.60, -7676.21, -39888.56, -41491.21, 0.00, 0.00, 0.00, -61006.94, -0.03, -0.03, -0.03
141, 18131.91, -7674.76, -39867.00, -41457.90, 0.00, 0.00, 0.00, -60772.94, 0.00, 0.00, 0.00
142, 18139.60, -7674.96, -39835.08, -41430.28, 0.00, 0.00, 0.00, -60590.37, -0.03, -0.03, 0.00
143, 18123.26, -7678.85, -39855.86, -41459.02, 0.00, 0.00, 0.00, -60802.38, 0.00, 0.00, -0.03
144, 18110.32, -7684.98, -39895.49, -41491.34, 0.00, 0.00, 0.00, -61014.85, -0.03, -0.03, -0.03
145, 18126.24, -7679.10, -39881.19, -41465.23, 0.00, 0.00, 0.00, -60832.86, -0.03, -0.03, -0.03
146, 18136.74, -7675.25, -39845.43, -41433.29, 0.00, 0.00, 0.00, -60603.11, 0.00, 0.00, 0.00
147, 18122.97, -7678.56, -39854.95, -41451.00, 0.00, 0.00, 0.00, -60753.80, -0.03, -0.03, 0.00
148, 18106.77, -7681.42, -39895.40, -41483.59, 0.00, 0.00, 0.00, -61008.55, -0.03, -0.03, -0.03
149, 18107.44, -7686.03, -39893.13, -41468.68, 0.00, 0.00, 0.00, -60893.57, -0.03, 0.00, 0.00
150, 18119.46, -7687.06, -39850.16, -41431.53, 0.00, 0.00, 0.00, -60623.23, -0.03, -0.03, -0.03
151, 18114.48, -7690.27, -39850.36, -41444.89, 0.00, 0.00, 0.00, -60709.19, -0.03, 0.00, -0.03
152, 18098.68, -7693.63, -39894.96, -41486.07, 0.00, 0.00, 0.00, -60996.10, -0.03, -0.03, -0.03
153, 18101.31, -7694.14, -39901.66, -41481.95, 0.00, 0.00, 0.00, -60953.54, 0.00, -0.03, -0.03
154, 18122.01, -7691.12, -39862.75, -41442.75, 0.00, 0.00, 0.00, -60666.63, 0.00, -0.03, -0.03
155, 18123.22, -7691.70, -39850.90, -41445.14, 0.00, 0.00, 0.00, -60672.85, 0.00, 0.00, -0.03
156, 18108.56, -7693.96, -39886.13, -41485.77, 0.00, 0.00, 0.00, -60960.65, -0.03, 0.00, -0.03
157, 18103.21, -7695.17, -39900.23, -41492.23, 0.00, 0.00, 0.00, -60990.18, 0.00, -0.03, -0.03
158, 18116.04, -7694.57, -39866.77, -41453.07, 0.00, 0.00, 0.00, -60707.02, 0.00, -0.03, 0.00
159, 18122.35, -7692.11, -39842.25, -41440.42, 0.00, 0.00, 0.00, -60633.71, -0.03, -0.03, -0.03
160, 18110.30, -7688.42, -39876.50, -41479.41, 0.00, 0.00, 0.00, -60906.31, -0.03, -0.03, 0.00
161, 18106.54, -7682.12, -39900.54, -41490.80, 0.00, 0.00, 0.00, -61007.32, 0.00, -0.03, 0.00
162, 18119.89, -7686.85, -39873.92, -41454.97, 0.00, 0.00, 0.00, -60747.10, 0.00, 0.00, -0.03
163, 18126.26, -7690.99, -39844.75, -41434.97, 0.00, 0.00, 0.00, -60602.84, -0.03, -0.03, 0.00
164, 18119.75, -7680.93, -39866.21, -41460.38, 0.00, 0.00, 0.00, -60839.64, -0.03, -0.03, 0.00
165, 18113.65, -7677.29, -39898.06, -41480.88, 0.00, 0.00, 0.00, -61011.14, -0.03, -0.03, 0.00
166, 18126.26, -7673.80, -39868.45, -41448.56, 0.00, 0.00, 0.00, -60787.27, 0.00, -0.03, 0.00
167, 18134.97, -7678.34, -39831.16, -41417.69, 0.00, 0.00, 0.00, -60578.05, 0.00, 0.00, -0.03
168, 18123.82, -7680.66, -39845.58, -41439.93, 0.00, 0.00, 0.00, -60764.76, 0.00, 0.00, -0.03
169, 18110.61, -7681.94, -39886.38, -41470.57, 0.00, 0.00, 0.00, -60994.69, 0.00, -0.03, 0.00
170, 18120.20, -7680.80, -39876.56, -41448.38, 0.00, 0.00, 0.00, -60832.30, 0.00, -0.03, 0.00
171, 18136.16, -7675.63, -39836.93, -41413.73, 0.00, 0.00, 0.00, -60581.99, -0.03, 0.00, -0.03
172, 18123.44, -7677.98, -39843.91, -41430.77, 0.00, 0.00, 0.00, -60713.48, 0.00, 0.00, 0.00
173, 18104.24, -7683.12, -39891.63, -41471.43, 0.00, 0.00, 0.00, -60991.85, 0.00, 0.00, -0.03
174, 18107.01, -7688.35, -39897.77, -41466.51, 0.00, 0.00, 0.00, -60907.14, -0.03, 0.00, -0.03
175, 18122.37, -7687.28, -39857.25, -41433.14, 0.00, 0.00, 0.00, -60634.40, -0.03, 0.00, -0.03
176, 18117.00, -7693.25, -39857.27, -41445.70, 0.00, 0.00, 0.00, -60699.02, -0.03, -0.03, -0.03
177, 18092.46, -7704.56, -39895.80, -41486.67, 0.00, 0.00, 0.00, -60987.67, -0.03, -0.03, -0.03
178, 18090.52, -7707.55, -39904.55, -41488.26, 0.00, 0.00, 0.00, -60970.55, -0.03, -0.03, -0.03
179, 18106.72, -7703.22, -39869.05, -41454.35, 0.00, 0.00, 0.00, -60689.03, 0.00, 0.00, 0.00
180, 18106.16, -7704.24, -39854.66, -41455.93, 0.00, 0.00, 0.00, -60673.23, -0.03, -0.03, 0.00
181, 18097.20, -7699.89, -39890.64, -41498.34, 0.00, 0.00, 0.00, -60964.29, -0.03, 0.00, -0.03
182, 18091.03, -7701.29, -39913.00, -41508.64, 0.00, 0.00, 0.00, -61024.91, -0.03, 0.00, -0.03
183, 18106.43, -7701.58, -39882.33, -41470.73, 0.00, 0.00, 0.00, -60747.37, 0.00, 0.00, -0.03
184, 18114.84, -7697.94, -39859.30, -41455.24, 0.00, 0.00, 0.00, -60650.65, 0.00, -0.03, -0.03
185, 18105.09, -7693.27, -39888.30, -41487.99, 0.00, 0.00, 0.00, -60913.96, -0.03, -0.03, -0.03
186, 18094.05, -7697.61, -39915.18, -41506.00, 0.00, 0.00, 0.00, -61040.58, -0.03, 0.00, 0.00
187, 18106.39, -7694.45, -39886.15, -41469.08, 0.00, 0.00, 0.00, -60789.66, 0.00, -0.03, -0.03
188, 18124.89, -7686.03, -39849.25, -41444.91, 0.00, 0.00, 0.00, -60620.97, -0.03, -0.03, 0.00
189, 18111.86, -7688.75, -39869.50, -41476.66, 0.00, 0.00, 0.00, -60845.78, -0.03, 0.00, -0.03
190, 18101.74, -7691.12, -39898.67, -41499.03, 0.00, 0.00, 0.00, -61034.77, -0.03, 0.00, -0.03
191, 18112.42, -7692.91, -39883.49, -41469.84, 0.00, 0.00, 0.00, -60835.81, -0.03, 0.00, -0.03
192, 18125.72, -7689.27, -39849.49, -41438.70, 0.00, 0.00, 0.00, -60614.44, -0.03, -0.03, -0.03
193, 18120.51, -7681.40, -39858.23, -41458.11, 0.00, 0.00, 0.00, -60782.04, -0.03, -0.03, -0.03
194, 18102.88, -7684.82, -39896.68, -41489.02, 0.00, 0.00, 0.00, -61024.69, -0.03, 0.00, -0.03
195, 18104.76, -7690.72, -39885.88, -41464.88, 0.00, 0.00, 0.00, -60882.73, -0.03, 0.00, -0.03
196, 18111.75, -7697.99, -39848.24, -41430.95, 0.00, 0.00, 0.00, -60620.77, 0.00, 0.00, -0.03
197, 18107.13, -7698.23, -39851.01, -41445.61, 0.00, 0.00, 0.00, -60722.63, 0.00, -0.03, -0.03
198, 18099.82, -7693.94, -39892.36, -41486.11, 0.00, 0.00, 0.00, -60999.52, -0.03, 0.00, -0.03
199, 18108.64, -7689.31, -39898.24, -41481.93, 0.00, 0.00, 0.00, -60938.77, 0.00, -0.03, 0.00
200, 18121.45, -7692.89, -39864.98, -41452.52, 0.00, 0.00, 0.00, -60658.25, -0.03, -0.03, -0.03
201, 18113.29, -7698.43, -39860.49, -41458.15, 0.00, 0.00, 0.00, -60692.07, -0.03, -0.03, -0.03
202, 18094.36, -7702.68, -39896.88, -41494.47, 0.00, 0.00, 0.00, -60981.50, 0.00, -0.03, -0.03
203, 18089.29, -7705.34, -39912.55, -41496.04, 0.00, 0.00, 0.00, -60989.73, 0.00, -0.03, 0.00
204, 18106.39, -7704.71, -39877.79, -41457.95, 0.00, 0.00, 0.00, -60704.99, 0.00, -0.03, 0.00
205, 18116.00, -7697.58, -39861.45, -41452.27, 0.00, 0.00, 0.00, -60659.21, -0.03, -0.03, -0.03
206, 18098.18, -7698.21, -39896.12, -41488.28, 0.00, 0.00, 0.00, -60939.32, -0.03, 0.00, 0.00
207, 18089.06, -7702.46, -39914.92, -41496.82, 0.00, 0.00, 0.00, -61013.04, -0.03, -0.03, -0.03
208, 18108.20, -7697.49, -39883.98, -41456.83, 0.00, 0.00, 0.00, -60741.42, -0.03, -0.03, 0.00
209, 18119.40, -7691.35, -39856.49, -41441.41, 0.00, 0.00, 0.00, -60621.26, -0.03, -0.03, 0.00
210, 18108.96, -7695.35, -39880.70, -41476.68, 0.00, 0.00, 0.00, -60875.33, 0.00, 0.00, -0.03
211, 18103.21, -7696.29, -39906.33, -41496.35, 0.00, 0.00, 0.00, -61024.29, -0.03, -0.03, -0.03
212, 18117.63, -7694.16, -39885.37, -41469.41, 0.00, 0.00, 0.00, -60800.48, 0.00, -0.03, 0.00
213, 18129.23, -7694.79, -39853.96, -41445.92, 0.00, 0.00, 0.00, -60617.55, 0.00, 0.00, 0.00
214, 18116.42, -7698.81, -39875.64, -41473.37, 0.00, 0.00, 0.00, -60820.88, 0.00, -0.03, 0.00
215, 18105.20, -7696.98, -39907.96, -41497.89, 0.00, 0.00, 0.00, -61029.92, 0.00, -0.03, -0.03
216, 18115.60, -7693.13, -39884.88, -41464.90, 0.00, 0.00, 0.00, -60839.75, 0.00, 0.00, 0.00
217, 18132.14, -7691.19, -39848.13, -41430.90, 0.00, 0.00, 0.00, -60599.20, -0.03, -0.03, -0.03
218, 18127.51, -7686.36, -39860.00, -41450.62, 0.00, 0.00, 0.00, -60748.93, 0.00, -0.03, -0.03
219, 18112.58, -7686.30, -39900.81, -41485.15, 0.00, 0.00, 0.00, -61006.65, -0.03, -0.03, -0.03
220, 18116.07, -7685.89, -39892.57, -41467.09, 0.00, 0.00, 0.00, -60885.86, 0.00, -0.03, 0.00
221, 18129.57, -7686.92, -39850.57, -41430.41, 0.00, 0.00, 0.00, -60613.32, 0.00, 0.00, -0.03
222, 18123.53, -7688.15, -39856.04, -41447.44, 0.00, 0.00, 0.00, -60698.82, -0.03, -0.03, 0.00
223, 18101.43, -7694.34, -39897.66, -41491.92, 0.00, 0.00, 0.00, -60986.87, 0.00, 0.00, 0.00
224, 18105.11, -7699.10, -39904.05, -41490.49, 0.00, 0.00, 0.00, -60944.46, 0.00, -0.03, -0.03
225, 18123.38, -7697.29, -39864.49, -41453.01, 0.00, 0.00, 0.00, -60660.78, 0.00, -0.03, 0.00
226, 18122.91, -7693.87, -39851.41, -41451.62, 0.00, 0.00, 0.00, -60667.91, -0.03, -0.03, -0.03
227, 18104.35, -7698.12, -39885.05, -41486.11, 0.00, 0.00, 0.00, -60953.12, -0.03, -0.03, -0.03
228, 18095.57, -7701.79, -39898.53, -41489.82, 0.00, 0.00, 0.00, -60982.84, 0.00, -0.03, -0.03
229, 18111.24, -7700.33, -39863.29, -41453.75, 0.00, 0.00, 0.00, -60701.84, -0.03, 0.00, -0.03
230, 18119.20, -7699.44, -39843.14, -41444.07, 0.00, 0.00, 0.00, -60632.39, -0.03, -0.03, -0.03
231, 18105.67, -7697.14, -39879.89, -41481.55, 0.00, 0.00, 0.00, -60912.91, 0.00, -0.03, 0.00
232, 18100.06, -7699.28, -39905.51, -41495.50, 0.00, 0.00, 0.00, -61019.43, -0.03, -0.03, 0.00
233, 18117.18, -7696.13, -39871.73, -41453.86, 0.00, 0.00, 0.00, -60753.36, 0.00, -0.03, -0.03
234, 18126.79, -7692.96, -39842.48, -41433.00, 0.00, 0.00, 0.00, -60606.57, -0.03, 0.00, 0.00
235, 18115.91, -7692.44, -39867.04, -41467.11, 0.00, 0.00, 0.00, -60845.02, -0.03, -0.03, -0.03
236, 18111.71, -7690.39, -39894.71, -41486.67, 0.00, 0.00, 0.00, -61013.91, -0.03, 0.00, 0.00
237, 18120.69, -7688.98, -39867.78, -41455.69, 0.00, 0.00, 0.00, -60795.49, 0.00, -0.03, -0.03
238, 18131.55, -7688.06, -39832.48, -41429.92, 0.00, 0.00, 0.00, -60594.44, -0.03, 0.00, 0.00
239, 18121.54, -7689.20, -39849.23, -41453.84, 0.00, 0.00, 0.00, -60782.55, 0.00, 0.00, 0.00
240, 18105.22, -7693.60, -39887.60, -41482.13, 0.00, 0.00, 0.00, -61009.40, -0.03, -0.03, -0.03
241, 18113.52, -7692.49, -39875.80, -41462.89, 0.00, 0.00, 0.00, -60850.14, 0.00, 0.00, -0.03
242, 18133.25, -7687.23, -39839.23, -41433.41, 0.00, 0.00, 0.00, -60602.37, 0.00, -0.03, -0.03
243, 18127.13, -7680.13, -39847.08, -41450.50, 0.00, 0.00, 0.00, -60728.61, 0.00, -0.03, 0.00
244, 18109.92, -7680.01, -39886.78, -41485.30, 0.00, 0.00, 0.00, -60994.64, -0.03, -0.03, 0.00
245, 18110.97, -7688.04, -39883.96, -41473.37, 0.00, 0.00, 0.00, -60902.85, -0.03, 0.00, 0.00
246, 18125.54, -7697.40, -39842.90, -41438.34, 0.00, 0.00, 0.00, -60623.27, -0.03, -0.03, -0.03
247, 18122.84, -7696.02, -39840.95, -41446.75, 0.00, 0.00, 0.00, -60681.52, -0.03, 0.00, -0.03
248, 18113.16, -7689.45, -39884.50, -41489.39, 0.00, 0.00, 0.00, -60973.48, -0.03, -0.03, -0.03
249, 18117.90, -7680.44, -39901.71, -41493.04, 0.00, 0.00, 0.00, -60965.99, 0.00, -0.03, 0.00
250, 18125.56, -7677.60, -39867.84, -41454.89, 0.00, 0.00, 0.00, -60681.88, 0.00, -0.03, -0.03
251, 18119.78, -7688.64, -39853.14, -41452.23, 0.00, 0.00, 0.00, -60660.84, -0.03, 0.00, -0.03
252, 18098.16, -7701.94, -39888.45, -41491.99, 0.00, 0.00, 0.00, -60948.15, -0.03, -0.03, -0.03
253, 18091.37, -7705.85, -39908.19, -41500.30, 0.00, 0.00, 0.00, -61010.27, -0.03, 0.00, -0.03
254, 18105.65, -7704.18, -39881.12, -41464.00, 0.00, 0.00, 0.00, -60742.50, 0.00, -0.03, -0.03
255, 18116.07, -7697.87, -39862.34, -41452.56, 0.00, 0.00, 0.00, -60650.96, -0.03, -0.03, 0.00
0, 18105.00, -7696.42, -39896.95, -41489.35, 0.00, 0.00, 0.00, -60920.17, -0.03, -0.03, 0.00
1, 18093.49, -7700.78, -39924.57, -41506.38, 0.00, 0.00, 0.00, -61049.68, -0.03, -0.03, 0.00
2, 18100.84, -7709.76, -39895.92, -41470.31, 0.00, 0.00, 0.00, -60800.34, -0.03, -0.03, -0.03
3, 18109.29, -7708.69, -39866.12, -41446.04, 0.00, 0.00, 0.00, -60632.95, 0.00, -0.03, -0.03
4, 18101.94, -7704.00, -39888.77, -41474.69, 0.00, 0.00, 0.00, -60857.34, 0.00, 0.00, -0.03
5, 18098.45, -7695.79, -39915.39, -41497.93, 0.00, 0.00, 0.00, -61046.93, 0.00, -0.03, -0.03
6, 18105.47, -7695.03, -39895.20, -41465.21, 0.00, 0.00, 0.00, -60843.55, -0.03, -0.03, 0.00
7, 18113.16, -7697.31, -39862.90, -41432.15, 0.00, 0.00, 0.00, -60618.93, -0.03, 0.00, 0.00
8, 18107.62, -7691.50, -39872.58, -41456.96, 0.00, 0.00, 0.00, -60786.44, 0.00, 0.00, -0.03
9, 18102.25, -7682.79, -39908.97, -41492.04, 0.00, 0.00, 0.00, -61029.69, -0.03, 0.00, -0.03
10, 18114.79, -7683.84, -39897.44, -41474.49, 0.00, 0.00, 0.00, -60888.70, -0.03, -0.03, -0.03
11, 18121.05, -7693.07, -39854.50, -41439.17, 0.00, 0.00, 0.00, -60623.61, -0.03, -0.03, -0.03
12, 18109.27, -7700.87, -39859.51, -41457.48, 0.00, 0.00, 0.00, -60724.59, -0.03, 0.00, -0.03
13, 18094.27, -7700.58, -39906.18, -41498.25, 0.00, 0.00, 0.00, -61005.42, -0.03, -0.03, 0.00
14, 18103.48, -7694.01, -39911.05, -41489.69, 0.00, 0.00, 0.00, -60943.53, 0.00, -0.03, -0.03
15, 18120.13, -7688.60, -39876.09, -41455.49, 0.00, 0.00, 0.00, -60664.22, -0.03, -0.03, -0.03
16, 18122.97, -7691.84, -39870.95, -41463.65, 0.00, 0.00, 0.00, -60695.85, -0.03, -0.03, 0.00
17, 18099.73, -7699.89, -39910.09, -41506.32, 0.00, 0.00, 0.00, -60984.70, -0.03, 0.00, 0.00
18, 18095.61, -7701.56, -39921.91, -41506.43, 0.00, 0.00, 0.00, -60989.55, -0.03, 0.00, 0.00
19, 18112.00, -7701.43, -39890.46, -41473.26, 0.00, 0.00, 0.00, -60710.44, -0.03, 0.00, 0.00
20, 18119.20, -7698.07, -39874.32, -41472.07, 0.00, 0.00, 0.00, -60669.43, -0.03, 0.00, -0.03
21, 18102.92, -7699.48, -39903.38, -41509.63, 0.00, 0.00, 0.00, -60947.21, 0.00, -0.03, -0.03
22, 18096.60, -7701.49, -39917.53, -41512.04, 0.00, 0.00, 0.00, -61023.66, 0.00, -0.03, 0.00
23, 18112.02, -7702.99, -39893.37, -41477.91, 0.00, 0.00, 0.00, -60762.57, -0.03, 0.00, -0.03
24, 18115.19, -7703.19, -39870.64, -41465.48, 0.00, 0.00, 0.00, -60646.05, -0.03, -0.03, 0.00
25, 18098.07, -7705.25, -39898.82, -41498.58, 0.00, 0.00, 0.00, -60899.45, 0.00, -0.03, -0.03
26, 18089.96, -7708.60, -39928.68, -41516.35, 0.00, 0.00, 0.00, -61052.80, -0.03, 0.00, 0.00
27, 18097.34, -7709.54, -39905.75, -41481.48, 0.00, 0.00, 0.00, -60822.92, -0.03, -0.03, 0.00
28, 18110.70, -7705.27, -39869.68, -41453.39, 0.00, 0.00, 0.00, -60634.49, -0.03, -0.03, 0.00
29, 18105.81, -7703.93, -39883.69, -41478.27, 0.00, 0.00, 0.00, -60836.33, -0.03, 0.00, -0.03
30, 18086.54, -7715.98, -39917.80, -41508.17, 0.00, 0.00, 0.00, -61049.41, 0.00, -0.03, -0.03
31, 18097.40, -7715.62, -39905.33, -41487.47, 0.00, 0.00, 0.00, -60875.62, -0.03, -0.03, -0.03
32, 18111.39, -7710.32, -39868.31, -41456.16, 0.00, 0.00, 0.00, -60637.60, -0.03, -0.03, 0.00
33, 18104.49, -7708.60, -39879.20, -41479.00, 0.00, 0.00, 0.00, -60782.91, -0.03, -0.03, -0.03
34, 18095.41, -7701.83, -39920.13, -41516.73, 0.00, 0.00, 0.00, -61038.16, -0.03, -0.03, -0.03
35, 18103.93, -7698.57, -39912.97, -41496.59, 0.00, 0.00, 0.00, -60922.34, -0.03, -0.03, 0.00
36, 18123.55, -7697.25, -39871.42, -41453.01, 0.00, 0.00, 0.00, -60644.82, -0.03, 0.00, -0.03
37, 18119.31, -7696.53, -39873.39, -41462.86, 0.00, 0.00, 0.00, -60724.75, 0.00, -0.03, -0.03
38, 18107.84, -7696.02, -39913.96, -41503.77, 0.00, 0.00, 0.00, -61009.35, -0.03, -0.03, -0.03
39, 18111.73, -7696.69, -39919.23, -41502.58, 0.00, 0.00, 0.00, -60971.60, 0.00, -0.03, 0.00
40, 18122.37, -7699.86, -39873.41, -41463.98, 0.00, 0.00, 0.00, -60680.31, -0.03, -0.03, -0.03
41, 18121.32, -7701.52, -39859.08, -41460.74, 0.00, 0.00, 0.00, -60677.70, 0.00, 0.00, -0.03
42, 18119.62, -7694.45, -39891.94, -41494.31, 0.00, 0.00, 0.00, -60958.39, -0.03, -0.03, -0.03
43, 18116.76, -7691.23, -39906.56, -41495.92, 0.00, 0.00, 0.00, -60993.57, 0.00, -0.03, 0.00
44, 18129.01, -7692.62, -39874.48, -41457.86, 0.00, 0.00, 0.00, -60714.87, 0.00, -0.03, 0.00
45, 18132.76, -7691.73, -39851.66, -41447.00, 0.00, 0.00, 0.00, -60639.61, -0.03, -0.03, -0.03
46, 18119.73, -7688.31, -39882.13, -41480.25, 0.00, 0.00, 0.00, -60910.69, 0.00, -0.03, -0.03
47, 18110.84, -7690.16, -39905.84, -41493.04, 0.00, 0.00, 0.00, -61017.49, -0.03, -0.03, 0.00
48, 18120.42, -7692.51, -39877.32, -41459.27, 0.00, 0.00, 0.00, -60759.39, -0.03, 0.00, 0.00
49, 18128.58, -7691.93, -39850.16, -41438.25, 0.00, 0.00, 0.00, -60616.01, 0.00, 0.00, 0.00
50, 18121.10, -7688.37, -39877.63, -41469.95, 0.00, 0.00, 0.00, -60855.26, -0.03, 0.00, -0.03
51, 18109.32, -7693.11, -39916.95, -41497.75, 0.00, 0.00, 0.00, -61036.31, 0.00, -0.03, -0.03
52, 18112.76, -7699.86, -39899.16, -41470.53, 0.00, 0.00, 0.00, -60825.78, -0.03, -0.03, -0.03
53, 18117.05, -7708.42, -39865.39, -41445.14, 0.00, 0.00, 0.00, -60622.02, -0.03, -0.03, -0.03
54, 18102.25, -7712.45, -39877.79, -41470.46, 0.00, 0.00, 0.00, -60807.41, -0.03, -0.03, -0.03
55, 18098.16, -7706.23, -39906.33, -41491.00, 0.00, 0.00, 0.00, -61028.06, 0.00, -0.03, -0.03
56, 18106.72, -7705.79, -39898.62, -41467.98, 0.00, 0.00, 0.00, -60874.66, 0.00, -0.03, 0.00
57, 18119.69, -7703.39, -39861.70, -41434.37, 0.00, 0.00, 0.00, -60627.65, -0.03, -0.03, 0.00
58, 18109.47, -7705.14, -39862.70, -41446.77, 0.00, 0.00, 0.00, -60745.98, -0.03, -0.03, 0.00
59, 18100.24, -7701.23, -39897.37, -41479.27, 0.00, 0.00, 0.00, -61011.05, 0.00, -0.03, -0.03
60, 18111.80, -7691.53, -39895.70, -41470.89, 0.00, 0.00, 0.00, -60922.67, -0.03, -0.03, -0.03
61, 18127.51, -7687.64, -39854.34, -41436.71, 0.00, 0.00, 0.00, -60642.49, 0.00, 0.00, -0.03
62, 18127.17, -7691.88, -39851.01, -41452.05, 0.00, 0.00, 0.00, -60695.04, -0.03, -0.03, -0.03
63, 18108.58, -7695.88, -39883.22, -41495.72, 0.00, 0.00, 0.00, -60980.79, -0.03, 0.00, 0.00
64, 18111.66, -7692.46, -39896.39, -41496.46, 0.00, 0.00, 0.00, -60965.43, 0.00, 0.00, 0.00
65, 18133.43, -7688.64, -39863.55, -41458.26, 0.00, 0.00, 0.00, -60679.38, 0.00, 0.00, -0.03
66, 18140.74, -7685.33, -39852.06, -41451.44, 0.00, 0.00, 0.00, -60654.56, -0.03, -0.03, -0.03
67, 18118.01, -7691.57, -39892.54, -41487.86, 0.00, 0.00, 0.00, -60942.27, -0.03, 0.00, 0.00
68, 18109.79, -7694.68, -39911.48, -41490.89, 0.00, 0.00, 0.00, -61000.30, 0.00, -0.03, -0.03
69, 18124.20, -7692.49, -39880.32, -41449.92, 0.00, 0.00, 0.00, -60725.57, -0.03, -0.03, -0.03
70, 18125.65, -7696.24, -39854.66, -41434.14, 0.00, 0.00, 0.00, -60626.02, 0.00, -0.03, 0.00
71, 18103.97, -7704.31, -39877.01, -41463.25, 0.00, 0.00, 0.00, -60881.95, 0.00, 0.00, 0.00
72, 18100.73, -7704.18, -39900.48, -41472.99, 0.00, 0.00, 0.00, -61007.99, -0.03, -0.03, 0.00
73, 18115.73, -7698.59, -39874.28, -41435.66, 0.00, 0.00, 0.00, -60764.49, 0.00, 0.00, -0.03
74, 18122.95, -7697.47, -39838.43, -41405.15, 0.00, 0.00, 0.00, -60592.54, -0.03, -0.03, 0.00
75, 18106.95, -7702.14, -39854.86, -41428.91, 0.00, 0.00, 0.00, -60812.30, 0.00, 0.00, -0.03
76, 18092.33, -7701.36, -39887.74, -41457.43, 0.00, 0.00, 0.00, -61009.40, -0.03, -0.03, -0.03
77, 18105.02, -7695.64, -39871.06, -41434.16, 0.00, 0.00, 0.00, -60814.04, -0.03, 0.00, -0.03
78, 18114.10, -7701.90, -39836.24, -41415.23, 0.00, 0.00, 0.00, -60595.46, -0.03, -0.03, -0.03
79, 18104.00, -7706.26, -39853.32, -41451.96, 0.00, 0.00, 0.00, -60770.19, -0.03, -0.03, -0.03
80, 18095.70, -7701.16, -39891.58, -41491.70, 0.00, 0.00, 0.00, -61017.31, 0.00, 0.00, 0.00
81, 18101.04, -7699.10, -39886.66, -41475.05, 0.00, 0.00, 0.00, -60880.41, 0.00, -0.03, 0.00
82, 18116.04, -7697.78, -39850.57, -41440.33, 0.00, 0.00, 0.00, -60619.29, -0.03, -0.03, 0.00
83, 18103.41, -7708.58, -39860.71, -41456.36, 0.00, 0.00, 0.00, -60723.25, -0.03, -0.03, 0.00
84, 18085.31, -7713.21, -39910.43, -41493.69, 0.00, 0.00, 0.00, -61004.73, -0.03, 0.00, -0.03
85, 18096.96, -7704.44, -39912.52, -41479.67, 0.00, 0.00, 0.00, -60936.98, -0.03, -0.03, -0.03
86, 18111.19, -7701.90, -39872.67, -41435.37, 0.00, 0.00, 0.00, -60652.29, 0.00, -0.03, -0.03
87, 18112.20, -7697.99, -39860.58, -41431.24, 0.00, 0.00, 0.00, -60671.48, -0.03, -0.03, 0.00
88, 18103.86, -7692.55, -39896.05, -41462.98, 0.00, 0.00, 0.00, -60956.69, -0.03, 0.00, 0.00
89, 18104.22, -7689.20, -39907.14, -41463.27, 0.00, 0.00, 0.00, -60973.25, -0.03, -0.03, -0.03
90, 18122.88, -7685.38, -39873.14, -41425.54, 0.00, 0.00, 0.00, -60692.50, 0.00, -0.03, -0.03
91, 18129.23, -7689.04, -39855.11, -41420.15, 0.00, 0.00, 0.00, -60643.01, 0.00, -0.03, -0.03
92, 18111.24, -7695.41, -39885.93, -41454.17, 0.00, 0.00, 0.00, -60920.28, 0.00, 0.00, -0.03
93, 18103.55, -7698.88, -39902.31, -41458.82, 0.00, 0.00, 0.00, -61001.46, -0.03, 0.00, -0.03
94, 18114.63, -7699.97, -39869.79, -41422.96, 0.00, 0.00, 0.00, -60735.99, 0.00, 0.00, 0.00
95, 18121.27, -7703.06, -39842.63, -41410.05, 0.00, 0.00, 0.00, -60612.25, -0.03, -0.03, -0.03
96, 18113.43, -7699.97, -39863.91, -41445.12, 0.00, 0.00, 0.00, -60857.90, -0.03, -0.03, 0.00
97, 18105.20, -7700.76, -39890.22, -41469.46, 0.00, 0.00, 0.00, -61012.59, -0.03, -0.03, 0.00
98, 18117.76, -7700.91, -39867.55, -41439.33, 0.00, 0.00, 0.00, -60784.36, -0.03, -0.03, 0.00
99, 18125.34, -7701.76, -39838.99, -41415.61, 0.00, 0.00, 0.00, -60599.00, 0.00, 0.00, -0.03
100, 18113.83, -7701.27, -39859.13, -41443.91, 0.00, 0.00, 0.00, -60801.05, 0.00, -0.03, 0.00
101, 18106.12, -7697.29, -39895.14, -41475.36, 0.00, 0.00, 0.00, -61015.59, 0.00, -0.03, -0.03
102, 18119.13, -7694.70, -39881.16, -41458.46, 0.00, 0.00, 0.00, -60845.94, 0.00, -0.03, -0.03
103, 18136.38, -7688.69, -39842.63, -41431.46, 0.00, 0.00, 0.00, -60608.86, -0.03, -0.03, 0.00
104, 18129.25, -7687.59, -39849.96, -41452.79, 0.00, 0.00, 0.00, -60752.40, -0.03, -0.03, -0.03
105, 18111.93, -7690.36, -39893.64, -41490.89, 0.00, 0.00, 0.00, -61012.71, -0.03, -0.03, -0.03
106, 18114.26, -7692.67, -39899.14, -41481.21, 0.00, 0.00, 0.00, -60908.70, -0.03, -0.03, 0.00
107, 18130.77, -7689.13, -39856.31, -41443.48, 0.00, 0.00, 0.00, -60636.44, 0.00, 0.00, 0.00
108, 18130.17, -7687.81, -39852.64, -41450.66, 0.00, 0.00, 0.00, -60706.57, -0.03, -0.03, 0.00
109, 18116.83, -7685.00, -39894.06, -41485.86, 0.00, 0.00, 0.00, -60992.12, -0.03, -0.03, 0.00
110, 18116.83, -7683.55, -39901.10, -41477.50, 0.00, 0.00, 0.00, -60955.06, 0.00, -0.03, 0.00
111, 18139.09, -7682.43, -39862.97, -41437.79, 0.00, 0.00, 0.00, -60667.53, -0.03, -0.03, 0.00
112, 18143.76, -7681.22, -39849.56, -41434.23, 0.00, 0.00, 0.00, -60665.11, -0.03, 0.00, -0.03
113, 18132.58, -7678.96, -39884.38, -41470.46, 0.00, 0.00, 0.00, -60950.37, -0.03, -0.03, -0.03
114, 18131.80, -7677.91, -39901.10, -41479.16, 0.00, 0.00, 0.00, -60987.45, -0.03, 0.00, 0.00
115, 18145.91, -7674.11, -39866.37, -41445.30, 0.00, 0.00, 0.00, -60704.32, -0.03, -0.03, 0.00
116, 18149.48, -7675.37, -39843.12, -41437.47, 0.00, 0.00, 0.00, -60626.96, 0.00, 0.00, 0.00
117, 18132.03, -7681.22, -39872.36, -41473.13, 0.00, 0.00, 0.00, -60899.58, 0.00, -0.03, -0.03
118, 18127.55, -7679.52, -39897.04, -41488.64, 0.00, 0.00, 0.00, -61011.57, 0.00, -0.03, 0.00
119, 18143.34, -7678.43, -39871.02, -41453.95, 0.00, 0.00, 0.00, -60758.72, -0.03, -0.03, 0.00
120, 18150.53, -7682.61, -39846.59, -41438.32, 0.00, 0.00, 0.00, -60614.00, 0.00, -0.03, -0.03
121, 18135.47, -7689.02, -39866.28, -41469.73, 0.00, 0.00, 0.00, -60849.80, 0.00, 0.00, -0.03
122, 18116.78, -7694.86, -39898.98, -41492.73, 0.00, 0.00, 0.00, -61027.03, -0.03, -0.03, -0.03
123, 18128.34, -7693.16, -39879.13, -41461.32, 0.00, 0.00, 0.00, -60813.26, -0.03, -0.03, 0.00
124, 18140.00, -7693.69, -39842.00, -41428.78, 0.00, 0.00, 0.00, -60601.30, -0.03, 0.00, -0.03
125, 18130.33, -7695.53, -39853.25, -41450.62, 0.00, 0.00, 0.00, -60782.68, 0.00, -0.03, -0.03
126, 18118.86, -7694.12, -39887.47, -41480.12, 0.00, 0.00, 0.00, -61012.75, 0.00, 0.00, -0.03
127, 18128.74, -7691.66, -39878.44, -41465.79, 0.00, 0.00, 0.00, -60857.32, -0.03, -0.03, -0.03
128, 18145.35, -7690.79, -39838.38, -41434.12, 0.00, 0.00, 0.00, -60604.65, 0.00, 0.00, 0.00
129, 18141.97, -7692.31, -39840.71, -41452.23, 0.00, 0.00, 0.00, -60724.70, -0.03, -0.03, -0.03
130, 18130.68, -7689.18, -39879.64, -41490.91, 0.00, 0.00, 0.00, -60994.09, 0.00, -0.03, -0.03
131, 18136.83, -7688.20, -39877.57, -41479.63, 0.00, 0.00, 0.00, -60905.68, -0.03, -0.03, 0.00
132, 18150.91, -7690.59, -39839.14, -41446.19, 0.00, 0.00, 0.00, -60628.55, 0.00, 0.00, 0.00
133, 18150.58, -7686.63, -39834.96, -41456.63, 0.00, 0.00, 0.00, -60680.45, -0.03, -0.03, 0.00
134, 18142.62, -7679.30, -39873.88, -41497.38, 0.00, 0.00, 0.00, -60973.30, -0.03, -0.03, -0.03
135, 18147.74, -7673.98, -39883.49, -41492.23, 0.00, 0.00, 0.00, -60963.31, -0.03, -0.03, -0.03
136, 18156.54, -7676.91, -39850.30, -41450.21, 0.00, 0.00, 0.00, -60677.03, -0.03, -0.03, -0.03
137, 18155.05, -7678.49, -39835.93, -41444.22, 0.00, 0.00, 0.00, -60647.32, 0.00, -0.03, 0.00
138, 18146.24, -7677.85, -39874.77, -41477.82, 0.00, 0.00, 0.00, -60928.86, 0.00, -0.03, -0.03
139, 18141.64, -7680.55, -39894.09, -41483.05, 0.00, 0.00, 0.00, -60988.25, -0.03, -0.03, 0.00
140, 18157.21, -7678.81, -39856.11, -41440.56, 0.00, 0.00, 0.00, -60710.82, -0.03, -0.03, 0.00
141, 18165.75, -7675.30, -39833.96, -41426.63, 0.00, 0.00, 0.00, -60611.49, 0.00, -0.03, 0.00
142, 18152.39, -7671.32, -39867.38, -41464.21, 0.00, 0.00, 0.00, -60876.56, -0.03, -0.03, -0.03
143, 18138.69, -7677.24, -39895.18, -41483.59, 0.00, 0.00, 0.00, -61011.52, -0.03, 0.00, -0.03
144, 18145.35, -7684.57, -39867.51, -41451.55, 0.00, 0.00, 0.00, -60768.87, -0.03, 0.00, -0.03
145, 18152.03, -7684.95, -39834.54, -41431.10, 0.00, 0.00, 0.00, -60598.41, -0.03, 0.00, -0.03
146, 18136.47, -7686.59, -39854.07, -41459.85, 0.00, 0.00, 0.00, -60820.61, 0.00, 0.00, 0.00
147, 18132.81, -7680.86, -39881.72, -41482.69, 0.00, 0.00, 0.00, -61015.61, 0.00, -0.03, 0.00
148, 18139.78, -7680.71, -39863.46, -41460.92, 0.00, 0.00, 0.00, -60820.97, -0.03, -0.03, 0.00
149, 18151.36, -7683.68, -39824.97, -41429.72, 0.00, 0.00, 0.00, -60592.58, -0.03, -0.03, -0.03
150, 18140.25, -7686.38, -39839.88, -41450.23, 0.00, 0.00, 0.00, -60760.24, -0.03, -0.03, 0.00
151, 18122.75, -7691.44, -39880.90, -41481.64, 0.00, 0.00, 0.00, -61005.66, 0.00, -0.03, -0.03
152, 18127.49, -7693.92, -39882.33, -41468.86, 0.00, 0.00, 0.00, -60880.50, -0.03, -0.03, 0.00
153, 18142.87, -7690.36, -39845.52, -41437.68, 0.00, 0.00, 0.00, -60619.70, 0.00, 0.00, 0.00
154, 18133.32, -7692.84, -39851.59, -41456.65, 0.00, 0.00, 0.00, -60719.99, 0.00, -0.03, -0.03
155, 18121.59, -7696.13, -39897.06, -41499.88, 0.00, 0.00, 0.00, -61005.26, -0.03, 0.00, -0.03
156, 18122.82, -7695.93, -39906.78, -41497.64, 0.00, 0.00, 0.00, -60950.43, 0.00, -0.03, -0.03
157, 18137.05, -7693.54, -39871.73, -41461.59, 0.00, 0.00, 0.00, -60670.70, -0.03, -0.03, -0.03
158, 18135.67, -7693.38, -39858.95, -41458.84, 0.00, 0.00, 0.00, -60689.25, 0.00, -0.03, 0.00
159, 18119.15, -7690.50, -39895.61, -41492.44, 0.00, 0.00, 0.00, -60977.66, -0.03, 0.00, -0.03
160, 18117.05, -7688.46, -39906.11, -41492.30, 0.00, 0.00, 0.00, -60989.73, -0.03, 0.00, -0.03
161, 18129.25, -7691.17, -39870.41, -41456.54, 0.00, 0.00, 0.00, -60704.45, 0.00, 0.00, -0.03
162, 18134.10, -7692.67, -39856.94, -41452.18, 0.00, 0.00, 0.00, -60652.62, -0.03, 0.00, 0.00
163, 18124.69, -7692.60, -39885.97, -41488.95, 0.00, 0.00, 0.00, -60929.76, -0.03, -0.03, 0.00
164, 18116.29, -7694.95, -39906.22, -41500.73, 0.00, 0.00, 0.00, -61020.42, 0.00, -0.03, -0.03
165, 18131.58, -7690.63, -39874.15, -41463.63, 0.00, 0.00, 0.00, -60755.14, 0.00, 0.00, 0.00
166, 18140.76, -7688.17, -39843.23, -41442.41, 0.00, 0.00, 0.00, -60626.29, -0.03, -0.03, -0.03
167, 18121.18, -7694.12, -39871.44, -41473.62, 0.00, 0.00, 0.00, -60873.90, 0.00, -0.03, -0.03
168, 18108.67, -7695.68, -39908.01, -41496.70, 0.00, 0.00, 0.00, -61035.84, -0.03, 0.00, 0.00
169, 18128.61, -7692.35, -39891.52, -41469.55, 0.00, 0.00, 0.00, -60813.35, -0.03, 0.00, -0.03
170, 18143.02, -7686.27, -39858.39, -41443.53, 0.00, 0.00, 0.00, -60618.96, -0.03, 0.00, -0.03
171, 18126.79, -7686.34, -39873.30, -41466.80, 0.00, 0.00, 0.00, -60812.25, 0.00, -0.03, -0.03
172, 18107.77, -7691.03, -39910.04, -41494.52, 0.00, 0.00, 0.00, -61023.99, -0.03, 0.00, -0.03
173, 18123.15, -7684.22, -39890.20, -41465.99, 0.00, 0.00, 0.00, -60846.41, 0.00, 0.00, -0.03
174, 18130.53, -7685.96, -39852.02, -41434.10, 0.00, 0.00, 0.00, -60604.72, 0.00, 0.00, -0.03
175, 18118.59, -7691.41, -39859.95, -41454.95, 0.00, 0.00, 0.00, -60746.99, 0.00, 0.00, 0.00
176, 18102.90, -7696.35, -39901.50, -41492.66, 0.00, 0.00, 0.00, -61014.38, 0.00, -0.03, -0.03
177, 18114.66, -7692.51, -39893.82, -41478.51, 0.00, 0.00, 0.00, -60906.02, 0.00, -0.03, -0.03
178, 18130.24, -7686.43, -39853.45, -41440.36, 0.00, 0.00, 0.00, -60632.08, -0.03, 0.00, 0.00
179, 18121.34, -7692.44, -39852.85, -41452.56, 0.00, 0.00, 0.00, -60702.44, 0.00, 0.00, -0.03
180, 18103.79, -7698.43, -39891.20, -41490.47, 0.00, 0.00, 0.00, -60984.90, -0.03, -0.03, -0.03
181, 18107.91, -7699.80, -39893.32, -41483.79, 0.00, 0.00, 0.00, -60945.11, 0.00, 0.00, -0.03
182, 18121.36, -7698.48, -39852.73, -41444.91, 0.00, 0.00, 0.00, -60659.73, -0.03, -0.03, 0.00
183, 18118.66, -7696.62, -39842.59, -41449.10, 0.00, 0.00, 0.00, -60660.84, -0.03, -0.03, -0.03
184, 18106.86, -7699.93, -39888.14, -41493.80, 0.00, 0.00, 0.00, -60959.98, -0.03, -0.03, -0.03
185, 18106.66, -7697.76, -39910.80, -41501.29, 0.00, 0.00, 0.00, -61004.66, -0.03, 0.00, -0.03
186, 18116.16, -7702.17, -39882.37, -41463.16, 0.00, 0.00, 0.00, -60725.71, -0.03, -0.03, 0.00
187, 18116.11, -7704.76, -39859.75, -41453.36, 0.00, 0.00, 0.00, -60645.29, -0.03, 0.00, 0.00
188, 18100.17, -7703.80, -39893.97, -41491.18, 0.00, 0.00, 0.00, -60915.36, -0.03, 0.00, -0.03
189, 18092.55, -7705.12, -39920.50, -41505.38, 0.00, 0.00, 0.00, -61030.03, -0.03, 0.00, 0.00
190, 18110.37, -7697.29, -39891.63, -41466.64, 0.00, 0.00, 0.00, -60774.41, -0.03, 0.00, -0.03
191, 18125.23, -7693.05, -39860.18, -41445.52, 0.00, 0.00, 0.00, -60623.05, -0.03, -0.03, -0.03
192, 18111.97, -7697.52, -39880.16, -41475.85, 0.00, 0.00, 0.00, -60853.23, -0.03, -0.03, 0.00
193, 18098.41, -7696.58, -39910.60, -41501.93, 0.00, 0.00, 0.00, -61033.54, 0.00, 0.00, 0.00
194, 18112.94, -7691.06, -39893.19, -41475.49, 0.00, 0.00, 0.00, -60828.84, 0.00, -0.03, 0.00
195, 18121.92, -7698.07, -39860.11, -41450.14, 0.00, 0.00, 0.00, -60621.71, 0.00, 0.00, -0.03
196, 18108.06, -7703.46, -39876.94, -41477.06, 0.00, 0.00, 0.00, -60805.32, 0.00, 0.00, -0.03
197, 18095.19, -7703.33, -39915.09, -41508.51, 0.00, 0.00, 0.00, -61038.68, -0.03, -0.03, 0.00
198, 18106.79, -7699.89, -39901.71, -41487.43, 0.00, 0.00, 0.00, -60885.41, 0.00, -0.03, 0.00
199, 18118.57, -7700.00, -39860.13, -41450.75, 0.00, 0.00, 0.00, -60628.21, -0.03, 0.00, -0.03
200, 18113.00, -7700.58, -39862.26, -41463.49, 0.00, 0.00, 0.00, -60740.73, -0.03, 0.00, -0.03
201, 18105.65, -7693.96, -39900.07, -41494.63, 0.00, 0.00, 0.00, -61005.93, 0.00, -0.03, -0.03
202, 18107.88, -7694.79, -39902.27, -41483.36, 0.00, 0.00, 0.00, -60927.63, -0.03, -0.03, 0.00
203, 18115.71, -7705.14, -39863.57, -41445.36, 0.00, 0.00, 0.00, -60650.54, 0.00, -0.03, 0.00
204, 18114.81, -7707.22, -39858.50, -41449.68, 0.00, 0.00, 0.00, -60693.75, -0.03, -0.03, -0.03
205, 18105.31, -7701.49, -39900.19, -41486.25, 0.00, 0.00, 0.00, -60980.95, -0.03, -0.03, -0.03
206, 18109.58, -7694.97, -39912.48, -41484.14, 0.00, 0.00, 0.00, -60973.75, 0.00, 0.00, 0.00
207, 18120.13, -7696.13, -39881.59, -41445.18, 0.00, 0.00, 0.00, -60690.13, 0.00, -0.03, -0.03
208, 18116.54, -7701.16, -39864.58, -41440.13, 0.00, 0.00, 0.00, -60655.08, -0.03, -0.03, -0.03
209, 18098.50, -7704.82, -39897.59, -41480.21, 0.00, 0.00, 0.00, -60939.17, -0.03, -0.03, -0.03
210, 18093.16, -7707.64, -39923.79, -41496.44, 0.00, 0.00, 0.00, -61012.91, 0.00, -0.03, -0.03
211, 18098.92, -7713.94, -39901.73, -41467.47, 0.00, 0.00, 0.00, -60751.48, 0.00, -0.03, -0.03
212, 18101.63, -7717.70, -39883.94, -41458.28, 0.00, 0.00, 0.00, -60653.56, -0.03, -0.03, -0.03
213, 18096.04, -7714.06, -39917.02, -41496.14, 0.00, 0.00, 0.00, -60916.77, -0.03, 0.00, -0.03
214, 18089.82, -7712.00, -39942.70, -41515.50, 0.00, 0.00, 0.00, -61056.05, 0.00, -0.03, -0.03
215, 18096.51, -7716.54, -39917.62, -41485.33, 0.00, 0.00, 0.00, -60818.45, -0.03, -0.03, -0.03
216, 18104.76, -7718.91, -39888.79, -41463.73, 0.00, 0.00, 0.00, -60650.14, 0.00, -0.03, 0.00
217, 18094.70, -7722.10, -39908.68, -41490.29, 0.00, 0.00, 0.00, -60866.84, -0.03, -0.03, 0.00
218, 18081.76, -7725.77, -39940.62, -41513.74, 0.00, 0.00, 0.00, -61064.32, 0.00, -0.03, -0.03
219, 18093.63, -7722.46, -39921.15, -41485.82, 0.00, 0.00, 0.00, -60870.10, -0.03, -0.03, -0.03
220, 18111.35, -7716.29, -39880.41, -41456.25, 0.00, 0.00, 0.00, -60639.99, -0.03, -0.03, -0.03
221, 18101.60, -7718.79, -39891.29, -41480.10, 0.00, 0.00, 0.00, -60798.93, -0.03, -0.03, -0.03
222, 18087.63, -7719.80, -39926.34, -41511.10, 0.00, 0.00, 0.00, -61041.81, -0.03, 0.00, 0.00
223, 18093.42, -7718.53, -39915.32, -41489.62, 0.00, 0.00, 0.00, -60906.29, -0.03, -0.03, -0.03
224, 18113.61, -7713.12, -39877.63, -41454.84, 0.00, 0.00, 0.00, -60643.07, -0.03, -0.03, -0.03
225, 18115.62, -7710.10, -39878.46, -41467.65, 0.00, 0.00, 0.00, -60736.66, -0.03, 0.00, 0.00
226, 18094.54, -7713.14, -39918.29, -41504.75, 0.00, 0.00, 0.00, -61014.80, -0.03, -0.03, 0.00
227, 18093.76, -7712.22, -39918.96, -41493.57, 0.00, 0.00, 0.00, -60955.71, -0.03, -0.03, -0.03
228, 18111.60, -7710.64, -39877.72, -41453.95, 0.00, 0.00, 0.00, -60669.72, -0.03, -0.03, 0.00
229, 18114.46, -7709.47, -39869.30, -41453.70, 0.00, 0.00, 0.00, -60686.57, 0.00, 0.00, 0.00
230, 18096.84, -7712.16, -39906.91, -41486.76, 0.00, 0.00, 0.00, -60973.97, 0.00, -0.03, -0.03
231, 18092.19, -7714.50, -39916.37, -41486.67, 0.00, 0.00, 0.00, -60989.64, -0.03, -0.03, 0.00
232, 18108.38, -7710.59, -39880.90, -41447.06, 0.00, 0.00, 0.00, -60709.26, 0.00, -0.03, -0.03
233, 18114.99, -7709.25, -39861.72, -41436.94, 0.00, 0.00, 0.00, -60653.11, 0.00, -0.03, 0.00
234, 18099.68, -7707.19, -39891.29, -41470.57, 0.00, 0.00, 0.00, -60928.55, -0.03, -0.03, -0.03
235, 18089.22, -7708.62, -39915.45, -41485.48, 0.00, 0.00, 0.00, -61023.86, -0.03, -0.03, -0.03
236, 18102.03, -7714.12, -39885.99, -41449.48, 0.00, 0.00, 0.00, -60760.13, 0.00, -0.03, -0.03
237, 18112.15, -7712.16, -39864.22, -41435.98, 0.00, 0.00, 0.00, -60632.88, -0.03, -0.03, -0.03
238, 18099.15, -7714.28, -39894.98, -41476.23, 0.00, 0.00, 0.00, -60882.28, -0.03, -0.03, 0.00
239, 18092.57, -7714.73, -39926.16, -41500.71, 0.00, 0.00, 0.00, -61043.39, 0.00, -0.03, 0.00
240, 18106.46, -7712.87, -39901.57, -41472.70, 0.00, 0.00, 0.00, -60817.17, -0.03, -0.03, 0.00
241, 18115.51, -7711.06, -39863.35, -41445.86, 0.00, 0.00, 0.00, -60617.62, 0.00, -0.03, 0.00
242, 18107.79, -7708.27, -39878.98, -41471.25, 0.00, 0.00, 0.00, -60812.70, -0.03, 0.00, 0.00
243, 18104.24, -7704.47, -39909.51, -41497.29, 0.00, 0.00, 0.00, -61026.50, 0.00, -0.03, -0.03
