%OpenBCI Raw EEG Data
%
%Sample Rate = 250.0 Hz
%First Column = SampleIndex
%Other Columns = EEG data in microvolts followed by Accel Data (in G) interleaved with Aux Data
0, 16195.18, -9656.27, -39278.38, -41826.26, 0.00, 0.00, 0.00, -61177.04, -0.03, -0.03, 0.00
1, 16195.29, -9657.03, -39267.36, -41823.67, 0.00, 0.00, 0.00, -61090.96, -0.03, 0.00, 0.00
2, 16194.53, -9659.08, -39255.12, -41835.45, 0.00, 0.00, 0.00, -61131.10, -0.03, 0.00, 0.00
3, 16188.38, -9669.45, -39280.75, -41854.36, 0.00, 0.00, 0.00, -61237.45, 0.00, -0.03, -0.03
4, 16192.36, -9662.75, -39296.13, -41842.80, 0.00, 0.00, 0.00, -61214.43, 0.00, 0.00, -0.03
5, 16200.57, -9654.88, -39277.63, -41825.54, 0.00, 0.00, 0.00, -61109.64, -0.03, -0.03, -0.03
6, 16202.26, -9654.14, -39259.99, -41830.82, 0.00, 0.00, 0.00, -61122.68, 0.00, -0.03, -0.03
7, 16191.65, -9659.57, -39271.93, -41847.40, 0.00, 0.00, 0.00, -61224.96, 0.00, -0.03, -0.03
8, 16191.56, -9659.40, -39294.30, -41849.39, 0.00, 0.00, 0.00, -61231.06, 0.00, -0.03, 0.00
9, 16195.69, -9658.75, -39286.09, -41837.93, 0.00, 0.00, 0.00, -61129.83, -0.03, -0.03, 0.00
10, 16193.79, -9661.18, -39266.83, -41837.64, 0.00, 0.00, 0.00, -61112.28, -0.03, -0.03, 0.00
11, 16195.58, -9657.70, -39270.94, -41843.40, 0.00, 0.00, 0.00, -61208.35, -0.03, 0.00, -0.03
12, 16189.23, -9661.34, -39297.36, -41849.97, 0.00, 0.00, 0.00, -61242.97, -0.03, -0.03, 0.00
13, 16193.48, -9664.54, -39294.21, -41838.31, 0.00, 0.00, 0.00, -61154.41, 0.00, 0.00, -0.03
14, 16188.29, -9668.49, -39276.98, -41839.07, 0.00, 0.00, 0.00, -61116.39, -0.03, -0.03, 0.00
15, 16171.60, -9682.04, -39294.23, -41867.10, 0.00, 0.00, 0.00, -61218.23, -0.03, 0.00, 0.00
16, 16186.19, -9668.29, -39306.03, -41860.70, 0.00, 0.00, 0.00, -61258.78, -0.03, -0.03, 0.00
17, 16193.01, -9665.81, -39308.60, -41848.21, 0.00, 0.00, 0.00, -61178.49, -0.03, -0.03, -0.03
18, 16194.84, -9668.51, -39287.64, -41844.97, 0.00, 0.00, 0.00, -61115.84, -0.03, 0.00, -0.03
19, 16191.56, -9670.10, -39282.86, -41858.96, 0.00, 0.00, 0.00, -61188.10, -0.03, -0.03, 0.00
20, 16188.63, -9666.53, -39306.08, -41870.79, 0.00, 0.00, 0.00, -61263.18, 0.00, -0.03, -0.03
21, 16193.84, -9663.33, -39310.75, -41859.88, 0.00, 0.00, 0.00, -61199.72, -0.03, 0.00, -0.03
22, 16201.64, -9658.77, -39282.23, -41847.52, 0.00, 0.00, 0.00, -61111.21, 0.00, -0.03, 0.00
23, 16200.23, -9657.54, -39268.17, -41855.90, 0.00, 0.00, 0.00, -61160.05, 0.00, 0.00, -0.03
24, 16200.48, -9655.60, -39286.39, -41866.63, 0.00, 0.00, 0.00, -61246.48, -0.03, -0.03, 0.00
25, 16210.80, -9646.01, -39295.24, -41847.00, 0.00, 0.00, 0.00, -61199.84, -0.03, 0.00, 0.00
26, 16206.91, -9651.08, -39287.28, -41837.77, 0.00, 0.00, 0.00, -61113.96, -0.03, -0.03, 0.00
27, 16202.64, -9656.00, -39274.32, -41849.89, 0.00, 0.00, 0.00, -61148.61, -0.03, -0.03, 0.00
28, 16203.45, -9649.65, -39283.52, -41852.52, 0.00, 0.00, 0.00, -61242.93, -0.03, -0.03, 0.00
29, 16202.18, -9650.72, -39299.35, -41841.95, 0.00, 0.00, 0.00, -61224.00, 0.00, -0.03, 0.00
30, 16210.36, -9648.11, -39281.80, -41822.32, 0.00, 0.00, 0.00, -61117.42, -0.03, 0.00, -0.03
31, 16206.27, -9655.19, -39265.24, -41830.48, 0.00, 0.00, 0.00, -61120.48, 0.00, -0.03, -0.03
32, 16200.34, -9656.87, -39272.06, -41843.47, 0.00, 0.00, 0.00, -61216.60, -0.03, -0.03, -0.03
33, 16201.17, -9653.81, -39285.00, -41835.82, 0.00, 0.00, 0.00, -61218.39, 0.00, -0.03, -0.03
34, 16206.91, -9649.78, -39276.75, -41821.25, 0.00, 0.00, 0.00, -61120.38, 0.00, -0.03, 0.00
35, 16202.91, -9652.60, -39266.58, -41828.47, 0.00, 0.00, 0.00, -61109.31, -0.03, -0.03, 0.00
36, 16203.47, -9655.82, -39277.38, -41848.88, 0.00, 0.00, 0.00, -61212.06, -0.03, -0.03, -0.03
37, 16201.13, -9655.84, -39299.62, -41848.21, 0.00, 0.00, 0.00, -61246.91, 0.00, -0.03, 0.00
38, 16192.68, -9663.82, -39299.98, -41839.54, 0.00, 0.00, 0.00, -61161.72, 0.00, -0.03, -0.03
39, 16191.96, -9668.51, -39276.46, -41838.73, 0.00, 0.00, 0.00, -61114.16, -0.03, -0.03, -0.03
40, 16187.54, -9672.16, -39277.40, -41850.98, 0.00, 0.00, 0.00, -61197.89, -0.03, 0.00, 0.00
41, 16184.07, -9671.58, -39298.37, -41855.63, 0.00, 0.00, 0.00, -61253.77, -0.03, 0.00, -0.03
42, 16186.89, -9670.28, -39305.03, -41847.38, 0.00, 0.00, 0.00, -61180.32, -0.03, 0.00, -0.03
43, 16192.16, -9672.36, -39283.05, -41841.48, 0.00, 0.00, 0.00, -61110.56, -0.03, -0.03, 0.00
44, 16189.95, -9674.82, -39276.35, -41847.20, 0.00, 0.00, 0.00, -61174.60, -0.03, 0.00, 0.00
45, 16187.89, -9676.11, -39293.88, -41852.61, 0.00, 0.00, 0.00, -61244.70, 0.00, -0.03, -0.03
46, 16192.14, -9667.73, -39302.25, -41842.96, 0.00, 0.00, 0.00, -61185.93, 0.00, -0.03, -0.03
47, 16196.72, -9666.46, -39287.37, -41840.90, 0.00, 0.00, 0.00, -61105.38, -0.03, 0.00, -0.03
48, 16192.81, -9673.95, -39280.55, -41858.51, 0.00, 0.00, 0.00, -61153.75, -0.03, -0.03, -0.03
49, 16200.37, -9661.12, -39290.83, -41856.93, 0.00, 0.00, 0.00, -61233.63, -0.03, -0.03, -0.03
50, 16215.12, -9648.47, -39295.75, -41835.25, 0.00, 0.00, 0.00, -61191.32, 0.00, 0.00, -0.03
51, 16216.03, -9648.89, -39280.42, -41827.06, 0.00, 0.00, 0.00, -61095.05, -0.03, 0.00, 0.00
52, 16213.02, -9653.54, -39265.18, -41836.41, 0.00, 0.00, 0.00, -61115.72, -0.03, -0.03, -0.03
53, 16203.05, -9660.54, -39272.80, -41846.24, 0.00, 0.00, 0.00, -61210.94, -0.03, -0.03, -0.03
54, 16208.90, -9648.44, -39282.32, -41831.82, 0.00, 0.00, 0.00, -61198.45, -0.03, -0.03, 0.00
55, 16205.28, -9649.83, -39277.22, -41824.56, 0.00, 0.00, 0.00, -61102.38, -0.03, -0.03, -0.03
56, 16198.04, -9658.17, -39261.55, -41836.30, 0.00, 0.00, 0.00, -61103.16, 0.00, -0.03, -0.03
57, 16195.76, -9655.06, -39263.74, -41844.41, 0.00, 0.00, 0.00, -61200.39, 0.00, 0.00, 0.00
58, 16196.14, -9652.13, -39281.71, -41839.92, 0.00, 0.00, 0.00, -61216.73, -0.03, -0.03, -0.03
59, 16199.07, -9654.28, -39275.86, -41823.87, 0.00, 0.00, 0.00, -61118.14, 0.00, -0.03, -0.03
60, 16195.87, -9660.54, -39253.62, -41826.01, 0.00, 0.00, 0.00, -61084.95, -0.03, -0.03, 0.00
61, 16194.38, -9664.92, -39259.50, -41845.95, 0.00, 0.00, 0.00, -61186.73, -0.03, -0.03, -0.03
62, 16197.93, -9659.91, -39279.59, -41844.95, 0.00, 0.00, 0.00, -61228.00, -0.03, -0.03, -0.03
63, 16198.51, -9660.16, -39281.25, -41829.59, 0.00, 0.00, 0.00, -61133.72, 0.00, -0.03, -0.03
64, 16197.50, -9663.31, -39258.31, -41824.89, 0.00, 0.00, 0.00, -61074.06, -0.03, -0.03, -0.03
65, 16192.23, -9666.97, -39255.61, -41837.55, 0.00, 0.00, 0.00, -61157.70, -0.03, 0.00, 0.00
66, 16183.47, -9671.51, -39284.80, -41846.06, 0.00, 0.00, 0.00, -61231.95, -0.03, -0.03, 0.00
67, 16197.17, -9665.27, -39285.29, -41829.07, 0.00, 0.00, 0.00, -61155.46, -0.03, -0.03, -0.03
68, 16194.98, -9669.14, -39263.21, -41823.29, 0.00, 0.00, 0.00, -61075.52, 0.00, 0.00, -0.03
69, 16189.84, -9673.14, -39263.45, -41840.05, 0.00, 0.00, 0.00, -61150.84, 0.00, 0.00, 0.00
70, 16191.29, -9666.75, -39283.35, -41848.54, 0.00, 0.00, 0.00, -61237.39, -0.03, -0.03, 0.00
71, 16198.02, -9662.93, -39293.63, -41840.07, 0.00, 0.00, 0.00, -61183.52, -0.03, -0.03, -0.03
72, 16205.10, -9659.13, -39272.93, -41832.65, 0.00, 0.00, 0.00, -61086.53, -0.03, -0.03, -0.03
73, 16194.08, -9669.92, -39270.65, -41855.16, 0.00, 0.00, 0.00, -61138.19, -0.03, 0.00, 0.00
74, 16192.92, -9667.60, -39285.04, -41860.03, 0.00, 0.00, 0.00, -61236.40, 0.00, -0.03, 0.00
75, 16202.26, -9657.16, -39291.59, -41841.82, 0.00, 0.00, 0.00, -61197.60, 0.00, 0.00, 0.00
76, 16208.14, -9654.21, -39272.33, -41824.96, 0.00, 0.00, 0.00, -61088.05, -0.03, -0.03, -0.03
77, 16205.24, -9653.29, -39252.72, -41829.30, 0.00, 0.00, 0.00, -61101.20, -0.03, -0.03, -0.03
78, 16197.24, -9657.34, -39268.32, -41841.73, 0.00, 0.00, 0.00, -61212.64, 0.00, -0.03, -0.03
79, 16200.23, -9652.85, -39281.42, -41830.46, 0.00, 0.00, 0.00, -61206.36, -0.03, -0.03, 0.00
80, 16205.39, -9655.51, -39270.61, -41816.02, 0.00, 0.00, 0.00, -61093.71, -0.03, -0.03, -0.03
81, 16204.95, -9656.20, -39249.57, -41814.91, 0.00, 0.00, 0.00, -61081.37, 0.00, 0.00, 0.00
82, 16193.15, -9661.14, -39264.73, -41831.31, 0.00, 0.00, 0.00, -61196.04, 0.00, -0.03, 0.00
83, 16183.69, -9665.52, -39292.40, -41834.08, 0.00, 0.00, 0.00, -61224.04, 0.00, -0.03, -0.03
84, 16192.07, -9658.55, -39276.64, -41813.86, 0.00, 0.00, 0.00, -61111.52, -0.03, 0.00, -0.03
85, 16192.79, -9659.17, -39255.29, -41815.06, 0.00, 0.00, 0.00, -61075.20, 0.00, 0.00, 0.00
86, 16194.73, -9659.82, -39263.61, -41830.19, 0.00, 0.00, 0.00, -61178.31, -0.03, -0.03, -0.03
87, 16194.20, -9660.98, -39292.60, -41838.60, 0.00, 0.00, 0.00, -61232.76, -0.03, -0.03, -0.03
88, 16198.04, -9658.41, -39294.16, -41827.93, 0.00, 0.00, 0.00, -61142.99, -0.03, 0.00, 0.00
89, 16187.38, -9668.56, -39273.49, -41825.99, 0.00, 0.00, 0.00, -61081.26, -0.03, -0.03, 0.00
90, 16182.17, -9675.98, -39273.38, -41842.62, 0.00, 0.00, 0.00, -61171.27, 0.00, -0.03, 0.00
91, 16181.12, -9676.43, -39298.99, -41853.17, 0.00, 0.00, 0.00, -61249.03, 0.00, 0.00, 0.00
92, 16180.67, -9671.71, -39309.65, -41846.09, 0.00, 0.00, 0.00, -61178.80, 0.00, 0.00, -0.03
93, 16190.08, -9665.05, -39277.69, -41830.89, 0.00, 0.00, 0.00, -61083.79, 0.00, -0.03, 0.00
94, 16190.46, -9667.13, -39265.44, -41845.71, 0.00, 0.00, 0.00, -61145.16, 0.00, 0.00, -0.03
95, 16192.36, -9663.53, -39283.12, -41850.67, 0.00, 0.00, 0.00, -61236.54, -0.03, -0.03, -0.03
96, 16195.13, -9662.14, -39293.00, -41837.05, 0.00, 0.00, 0.00, -61185.46, -0.03, -0.03, -0.03
97, 16199.69, -9664.71, -39274.32, -41825.05, 0.00, 0.00, 0.00, -61081.50, 0.00, 0.00, -0.03
98, 16196.36, -9668.38, -39262.09, -41833.81, 0.00, 0.00, 0.00, -61122.50, -0.03, -0.03, -0.03
99, 16188.36, -9669.77, -39281.00, -41848.54, 0.00, 0.00, 0.00, -61231.62, 0.00, -0.03, -0.03
100, 16183.69, -9669.79, -39301.20, -41842.78, 0.00, 0.00, 0.00, -61209.69, -0.03, -0.03, -0.03
101, 16190.91, -9664.25, -39283.03, -41824.45, 0.00, 0.00, 0.00, -61098.69, -0.03, -0.03, -0.03
102, 16195.60, -9665.16, -39261.75, -41822.39, 0.00, 0.00, 0.00, -61103.18, 0.00, 0.00, -0.03
103, 16187.45, -9669.97, -39275.41, -41838.13, 0.00, 0.00, 0.00, -61214.95, -0.03, -0.03, -0.03
104, 16186.95, -9671.24, -39291.41, -41837.14, 0.00, 0.00, 0.00, -61216.96, -0.03, -0.03, -0.03
105, 16196.65, -9670.53, -39274.23, -41819.17, 0.00, 0.00, 0.00, -61100.59, -0.03, -0.03, -0.03
106, 16197.28, -9672.31, -39253.21, -41823.18, 0.00, 0.00, 0.00, -61085.68, -0.03, -0.03, -0.03
107, 16182.84, -9680.43, -39267.95, -41845.41, 0.00, 0.00, 0.00, -61203.14, 0.00, -0.03, 0.00
108, 16180.61, -9678.93, -39280.29, -41837.93, 0.00, 0.00, 0.00, -61229.81, 0.00, -0.03, -0.03
109, 16181.12, -9683.20, -39276.93, -41826.46, 0.00, 0.00, 0.00, -61130.88, -0.03, -0.03, -0.03
110, 16175.71, -9687.38, -39259.23, -41830.21, 0.00, 0.00, 0.00, -61090.54, 0.00, -0.03, -0.03
111, 16167.98, -9690.78, -39265.20, -41847.88, 0.00, 0.00, 0.00, -61196.70, 0.00, -0.03, -0.03
112, 16179.04, -9680.67, -39279.84, -41846.64, 0.00, 0.00, 0.00, -61248.56, 0.00, -0.03, -0.03
113, 16187.07, -9676.16, -39281.60, -41828.79, 0.00, 0.00, 0.00, -61158.10, 0.00, -0.03, -0.03
114, 16189.14, -9677.43, -39259.70, -41823.69, 0.00, 0.00, 0.00, -61086.58, -0.03, -0.03, 0.00
115, 16185.81, -9680.79, -39261.42, -41847.31, 0.00, 0.00, 0.00, -61174.87, 0.00, -0.03, 0.00
116, 16185.43, -9677.66, -39284.11, -41855.07, 0.00, 0.00, 0.00, -61258.69, 0.00, 0.00, 0.00
117, 16194.24, -9670.42, -39280.11, -41830.66, 0.00, 0.00, 0.00, -61176.66, -0.03, 0.00, -0.03
118, 16190.24, -9676.99, -39258.20, -41820.67, 0.00, 0.00, 0.00, -61077.28, -0.03, -0.03, -0.03
119, 16191.80, -9674.86, -39246.46, -41827.91, 0.00, 0.00, 0.00, -61134.19, -0.03, -0.03, -0.03
120, 16187.51, -9674.06, -39271.88, -41845.55, 0.00, 0.00, 0.00, -61242.23, 0.00, -0.03, -0.03
121, 16186.89, -9672.83, -39288.93, -41843.78, 0.00, 0.00, 0.00, -61202.94, -0.03, -0.03, 0.00
122, 16190.46, -9669.19, -39268.26, -41833.12, 0.00, 0.00, 0.00, -61098.04, 0.00, -0.03, 0.00
123, 16188.76, -9670.64, -39252.39, -41841.04, 0.00, 0.00, 0.00, -61128.58, -0.03, -0.03, -0.03
124, 16191.96, -9665.43, -39264.53, -41847.31, 0.00, 0.00, 0.00, -61234.30, -0.03, 0.00, 0.00
125, 16187.83, -9668.22, -39282.61, -41838.46, 0.00, 0.00, 0.00, -61214.65, -0.03, -0.03, -0.03
126, 16186.19, -9673.41, -39266.74, -41819.66, 0.00, 0.00, 0.00, -61095.81, 0.00, -0.03, 0.00
127, 16180.41, -9678.37, -39249.93, -41821.01, 0.00, 0.00, 0.00, -61096.41, -0.03, -0.03, -0.03
128, 16182.06, -9673.99, -39259.03, -41825.52, 0.00, 0.00, 0.00, -61203.54, 0.00, -0.03, -0.03
129, 16190.44, -9667.91, -39277.40, -41819.04, 0.00, 0.00, 0.00, -61216.26, -0.03, 0.00, -0.03
130, 16194.06, -9668.60, -39270.63, -41805.96, 0.00, 0.00, 0.00, -61104.39, -0.03, -0.03, -0.03
131, 16185.93, -9680.18, -39254.98, -41810.68, 0.00, 0.00, 0.00, -61081.66, 0.00, 0.00, -0.03
132, 16183.09, -9679.74, -39261.93, -41821.10, 0.00, 0.00, 0.00, -61188.32, 0.00, -0.03, -0.03
133, 16184.92, -9674.19, -39284.62, -41823.29, 0.00, 0.00, 0.00, -61233.38, 0.00, -0.03, -0.03
134, 16177.21, -9680.21, -39288.66, -41820.98, 0.00, 0.00, 0.00, -61140.31, -0.03, -0.03, -0.03
135, 16173.77, -9686.78, -39268.53, -41822.17, 0.00, 0.00, 0.00, -61092.93, 0.00, 0.00, -0.03
136, 16172.92, -9689.46, -39267.68, -41839.09, 0.00, 0.00, 0.00, -61193.33, 0.00, 0.00, 0.00
137, 16172.00, -9686.87, -39289.70, -41844.36, 0.00, 0.00, 0.00, -61258.24, 0.00, 0.00, -0.03
138, 16175.58, -9682.53, -39295.53, -41835.51, 0.00, 0.00, 0.00, -61177.35, -0.03, -0.03, -0.03
139, 16177.77, -9683.69, -39274.29, -41833.72, 0.00, 0.00, 0.00, -61103.10, -0.03, -0.03, -0.03
140, 16174.57, -9690.49, -39273.67, -41856.30, 0.00, 0.00, 0.00, -61187.83, -0.03, 0.00, 0.00
141, 16166.77, -9695.34, -39295.44, -41870.25, 0.00, 0.00, 0.00, -61278.49, 0.00, -0.03, -0.03
142, 16168.54, -9693.48, -39299.91, -41859.30, 0.00, 0.00, 0.00, -61213.07, 0.00, -0.03, -0.03
143, 16173.57, -9691.85, -39277.98, -41847.14, 0.00, 0.00, 0.00, -61114.54, -0.03, 0.00, -0.03
144, 16169.34, -9695.52, -39269.18, -41857.57, 0.00, 0.00, 0.00, -61168.59, 0.00, -0.03, 0.00
145, 16164.18, -9697.46, -39290.81, -41870.61, 0.00, 0.00, 0.00, -61272.03, 0.00, -0.03, -0.03
146, 16168.04, -9693.33, -39300.60, -41857.20, 0.00, 0.00, 0.00, -61226.99, 0.00, -0.03, -0.03
147, 16178.50, -9687.11, -39277.51, -41837.52, 0.00, 0.00, 0.00, -61105.06, 0.00, -0.03, 0.00
148, 16172.27, -9691.05, -39266.92, -41845.88, 0.00, 0.00, 0.00, -61134.12, 0.00, -0.03, 0.00
149, 16172.60, -9688.01, -39282.30, -41859.92, 0.00, 0.00, 0.00, -61243.71, 0.00, -0.03, -0.03
150, 16182.28, -9678.75, -39293.92, -41849.37, 0.00, 0.00, 0.00, -61228.04, -0.03, -0.03, -0.03
151, 16187.11, -9676.00, -39278.59, -41832.27, 0.00, 0.00, 0.00, -61111.72, -0.03, 0.00, -0.03
152, 16185.68, -9677.79, -39260.66, -41833.70, 0.00, 0.00, 0.00, -61106.76, -0.03, -0.03, -0.03
153, 16181.95, -9680.54, -39274.72, -41846.06, 0.00, 0.00, 0.00, -61223.35, 0.00, -0.03, -0.03
154, 16178.71, -9679.04, -39294.19, -41840.72, 0.00, 0.00, 0.00, -61238.05, -0.03, 0.00, 0.00
155, 16183.91, -9676.00, -39286.52, -41825.10, 0.00, 0.00, 0.00, -61129.05, 0.00, -0.03, -0.03
156, 16184.50, -9678.89, -39266.07, -41826.28, 0.00, 0.00, 0.00, -61098.65, -0.03, 0.00, -0.03
157, 16182.84, -9681.26, -39273.11, -41841.73, 0.00, 0.00, 0.00, -61210.18, 0.00, -0.03, 0.00
158, 16178.19, -9682.19, -39299.30, -41847.70, 0.00, 0.00, 0.00, -61258.24, 0.00, 0.00, -0.03
159, 16173.23, -9687.49, -39302.61, -41839.02, 0.00, 0.00, 0.00, -61165.84, 0.00, -0.03, -0.03
160, 16174.97, -9690.49, -39277.49, -41835.54, 0.00, 0.00, 0.00, -61102.13, -0.03, -0.03, -0.03
161, 16170.44, -9695.90, -39283.35, -41857.15, 0.00, 0.00, 0.00, -61199.57, 0.00, -0.03, -0.03
162, 16169.16, -9694.08, -39302.99, -41862.29, 0.00, 0.00, 0.00, -61266.62, -0.03, -0.03, -0.03
163, 16173.21, -9693.28, -39304.25, -41848.99, 0.00, 0.00, 0.00, -61181.17, -0.03, 0.00, -0.03
164, 16162.63, -9706.40, -39288.35, -41852.57, 0.00, 0.00, 0.00, -61107.68, -0.03, -0.03, -0.03
165, 16157.45, -9707.97, -39276.98, -41863.90, 0.00, 0.00, 0.00, -61180.12, -0.03, -0.03, 0.00
166, 16153.78, -9706.98, -39297.16, -41873.69, 0.00, 0.00, 0.00, -61274.67, 0.00, -0.03, -0.03
167, 16163.60, -9698.00, -39302.55, -41857.53, 0.00, 0.00, 0.00, -61214.12, 0.00, -0.03, 0.00
168, 16172.49, -9695.49, -39282.65, -41840.72, 0.00, 0.00, 0.00, -61111.32, 0.00, -0.03, -0.03
169, 16163.04, -9701.82, -39278.45, -41857.21, 0.00, 0.00, 0.00, -61160.52, -0.03, 0.00, -0.03
170, 16166.99, -9690.80, -39289.85, -41860.88, 0.00, 0.00, 0.00, -61261.03, 0.00, 0.00, -0.03
171, 16176.63, -9677.99, -39294.95, -41838.93, 0.00, 0.00, 0.00, -61220.38, 0.00, -0.03, -0.03
172, 16180.49, -9682.44, -39278.32, -41825.28, 0.00, 0.00, 0.00, -61103.66, -0.03, 0.00, -0.03
173, 16176.65, -9687.96, -39266.22, -41838.15, 0.00, 0.00, 0.00, -61125.07, -0.03, -0.03, -0.03
174, 16172.34, -9685.90, -39282.77, -41853.59, 0.00, 0.00, 0.00, -61241.63, -0.03, -0.03, 0.00
175, 16178.66, -9678.46, -39293.98, -41843.92, 0.00, 0.00, 0.00, -61229.00, -0.03, -0.03, -0.03
176, 16191.09, -9668.67, -39278.03, -41826.50, 0.00, 0.00, 0.00, -61111.95, -0.03, 0.00, -0.03
177, 16185.86, -9672.76, -39264.19, -41832.76, 0.00, 0.00, 0.00, -61105.96, -0.03, 0.00, 0.00
178, 16178.44, -9677.59, -39275.48, -41846.04, 0.00, 0.00, 0.00, -61223.01, 0.00, -0.03, 0.00
179, 16173.95, -9681.30, -39294.01, -41841.73, 0.00, 0.00, 0.00, -61248.16, -0.03, -0.03, -0.03
180, 16175.89, -9684.88, -39288.71, -41830.19, 0.00, 0.00, 0.00, -61140.20, -0.03, -0.03, 0.00
181, 16175.64, -9687.65, -39269.18, -41833.79, 0.00, 0.00, 0.00, -61101.82, -0.03, -0.03, 0.00
182, 16180.18, -9682.22, -39266.63, -41845.75, 0.00, 0.00, 0.00, -61202.49, -0.03, -0.03, -0.03
183, 16182.39, -9677.46, -39282.23, -41843.40, 0.00, 0.00, 0.00, -61252.47, 0.00, 0.00, 0.00
184, 16183.24, -9676.67, -39279.37, -41825.84, 0.00, 0.00, 0.00, -61153.97, 0.00, -0.03, -0.03
185, 16177.25, -9691.83, -39269.67, -41836.99, 0.00, 0.00, 0.00, -61096.64, 0.00, -0.03, -0.03
186, 16167.71, -9698.71, -39272.04, -41860.26, 0.00, 0.00, 0.00, -61190.31, 0.00, -0.03, 0.00
187, 16170.23, -9689.59, -39285.67, -41866.98, 0.00, 0.00, 0.00, -61261.86, 0.00, -0.03, -0.03
188, 16171.20, -9687.51, -39290.05, -41855.14, 0.00, 0.00, 0.00, -61183.65, -0.03, 0.00, 0.00
189, 16168.71, -9690.64, -39267.45, -41847.65, 0.00, 0.00, 0.00, -61090.04, 0.00, -0.03, 0.00
190, 16172.69, -9689.70, -39256.90, -41857.60, 0.00, 0.00, 0.00, -61153.30, 0.00, -0.03, -0.03
191, 16171.69, -9687.02, -39275.95, -41866.74, 0.00, 0.00, 0.00, -61247.55, -0.03, -0.03, -0.03
192, 16173.95, -9683.76, -39285.47, -41856.75, 0.00, 0.00, 0.00, -61193.60, -0.03, -0.03, 0.00
193, 16179.85, -9683.04, -39265.04, -41843.54, 0.00, 0.00, 0.00, -61089.68, -0.03, -0.03, -0.03
194, 16182.17, -9678.71, -39247.07, -41846.62, 0.00, 0.00, 0.00, -61122.09, -0.03, -0.03, 0.00
195, 16183.85, -9672.67, -39258.56, -41854.04, 0.00, 0.00, 0.00, -61225.85, -0.03, 0.00, -0.03
196, 16182.53, -9676.11, -39277.47, -41849.73, 0.00, 0.00, 0.00, -61202.74, -0.03, -0.03, -0.03
197, 16186.15, -9676.25, -39263.92, -41832.18, 0.00, 0.00, 0.00, -61087.09, 0.00, -0.03, 0.00
198, 16184.96, -9676.90, -39247.89, -41832.41, 0.00, 0.00, 0.00, -61095.05, -0.03, -0.03, -0.03
199, 16176.47, -9683.00, -39267.63, -41850.82, 0.00, 0.00, 0.00, -61216.29, -0.03, -0.03, -0.03
200, 16182.39, -9681.08, -39287.04, -41847.65, 0.00, 0.00, 0.00, -61223.62, -0.03, 0.00, -0.03
201, 16183.18, -9684.85, -39280.98, -41835.89, 0.00, 0.00, 0.00, -61115.16, 0.00, -0.03, -0.03
202, 16186.24, -9684.72, -39256.70, -41830.80, 0.00, 0.00, 0.00, -61092.23, -0.03, 0.00, 0.00
203, 16177.81, -9690.42, -39269.49, -41849.64, 0.00, 0.00, 0.00, -61207.48, -0.03, 0.00, 0.00
204, 16174.95, -9688.61, -39293.61, -41852.68, 0.00, 0.00, 0.00, -61244.54, -0.03, 0.00, 0.00
205, 16181.08, -9680.83, -39284.57, -41831.00, 0.00, 0.00, 0.00, -61135.57, 0.00, 0.00, -0.03
206, 16187.74, -9680.36, -39260.48, -41828.18, 0.00, 0.00, 0.00, -61084.28, -0.03, 0.00, -0.03
207, 16179.53, -9685.84, -39267.25, -41849.97, 0.00, 0.00, 0.00, -61191.54, -0.03, -0.03, -0.03
208, 16179.40, -9684.47, -39291.26, -41858.18, 0.00, 0.00, 0.00, -61252.61, 0.00, 0.00, -0.03
209, 16181.75, -9684.38, -39292.71, -41849.24, 0.00, 0.00, 0.00, -61161.55, -0.03, 0.00, -0.03
210, 16186.53, -9684.47, -39268.80, -41847.61, 0.00, 0.00, 0.00, -61087.76, 0.00, -0.03, -0.03
211, 16177.95, -9687.42, -39269.02, -41872.73, 0.00, 0.00, 0.00, -61174.58, -0.03, -0.03, 0.00
212, 16169.90, -9695.07, -39300.64, -41891.50, 0.00, 0.00, 0.00, -61270.20, 0.00, -0.03, 0.00
213, 16172.13, -9695.31, -39308.47, -41882.59, 0.00, 0.00, 0.00, -61208.93, 0.00, -0.03, -0.03
214, 16172.18, -9698.51, -39286.09, -41872.15, 0.00, 0.00, 0.00, -61112.80, 0.00, -0.03, 0.00
215, 16169.12, -9702.13, -39277.63, -41883.97, 0.00, 0.00, 0.00, -61166.51, -0.03, 0.00, 0.00
216, 16168.00, -9697.37, -39294.48, -41892.13, 0.00, 0.00, 0.00, -61266.71, 0.00, -0.03, -0.03
217, 16174.57, -9691.22, -39302.70, -41876.71, 0.00, 0.00, 0.00, -61217.98, -0.03, 0.00, 0.00
218, 16182.98, -9685.61, -39279.32, -41854.07, 0.00, 0.00, 0.00, -61101.93, -0.03, 0.00, -0.03
219, 16181.63, -9681.90, -39260.52, -41854.87, 0.00, 0.00, 0.00, -61123.61, -0.03, -0.03, -0.03
220, 16181.90, -9676.27, -39273.67, -41861.73, 0.00, 0.00, 0.00, -61227.50, -0.03, 0.00, -0.03
221, 16191.38, -9670.12, -39283.41, -41844.63, 0.00, 0.00, 0.00, -61205.87, -0.03, -0.03, -0.03
222, 16195.27, -9666.64, -39259.88, -41820.31, 0.00, 0.00, 0.00, -61081.30, -0.03, -0.03, -0.03
223, 16190.91, -9673.59, -39244.34, -41827.02, 0.00, 0.00, 0.00, -61082.09, 0.00, -0.03, -0.03
224, 16177.90, -9680.63, -39264.39, -41845.62, 0.00, 0.00, 0.00, -61204.68, -0.03, -0.03, -0.03
225, 16180.56, -9682.02, -39282.05, -41842.09, 0.00, 0.00, 0.00, -61217.89, 0.00, 0.00, -0.03
226, 16180.58, -9685.19, -39277.54, -41834.04, 0.00, 0.00, 0.00, -61107.36, -0.03, 0.00, -0.03
227, 16186.89, -9680.25, -39250.58, -41827.93, 0.00, 0.00, 0.00, -61074.44, -0.03, -0.03, -0.03
228, 16177.70, -9685.73, -39257.33, -41843.54, 0.00, 0.00, 0.00, -61184.93, -0.03, -0.03, -0.03
229, 16174.79, -9682.95, -39277.64, -41845.35, 0.00, 0.00, 0.00, -61230.28, -0.03, -0.03, -0.03
230, 16177.63, -9681.19, -39273.71, -41831.87, 0.00, 0.00, 0.00, -61125.61, -0.03, -0.03, -0.03
231, 16181.05, -9685.35, -39252.90, -41831.69, 0.00, 0.00, 0.00, -61072.21, 0.00, -0.03, 0.00
232, 16179.26, -9685.10, -39252.48, -41845.91, 0.00, 0.00, 0.00, -61171.11, 0.00, -0.03, -0.03
233, 16179.76, -9683.42, -39277.13, -41855.14, 0.00, 0.00, 0.00, -61246.82, 0.00, -0.03, -0.03
234, 16181.70, -9684.34, -39279.99, -41843.47, 0.00, 0.00, 0.00, -61159.15, -0.03, 0.00, -0.03
235, 16179.35, -9688.34, -39260.46, -41842.11, 0.00, 0.00, 0.00, -61079.98, -0.03, -0.03, 0.00
236, 16177.14, -9688.41, -39253.11, -41855.45, 0.00, 0.00, 0.00, -61156.07, -0.03, -0.03, -0.03
237, 16170.08, -9692.90, -39281.60, -41868.23, 0.00, 0.00, 0.00, -61251.63, 0.00, 0.00, 0.00
238, 16169.43, -9696.01, -39296.18, -41861.17, 0.00, 0.00, 0.00, -61195.74, -0.03, 0.00, 0.00
239, 16182.86, -9679.58, -39263.86, -41835.47, 0.00, 0.00, 0.00, -61082.82, -0.03, -0.03, 0.00
240, 16180.29, -9676.94, -39251.41, -41841.61, 0.00, 0.00, 0.00, -61130.03, -0.03, 0.00, -0.03
241, 16176.38, -9674.93, -39265.00, -41851.11, 0.00, 0.00, 0.00, -61233.63, -0.03, -0.03, 0.00
242, 16182.55, -9673.66, -39272.26, -41838.44, 0.00, 0.00, 0.00, -61191.56, 0.00, -0.03, 0.00
243, 16188.85, -9677.68, -39254.42, -41827.78, 0.00, 0.00, 0.00, -61078.04, -0.03, -0.03, -0.03
244, 16181.63, -9681.55, -39240.07, -41838.91, 0.00, 0.00, 0.00, -61100.55, -0.03, -0.03, -0.03
245, 16175.60, -9681.81, -39253.68, -41852.88, 0.00, 0.00, 0.00, -61217.27, 0.00, -0.03, 0.00
246, 16175.69, -9680.29, -39272.77, -41846.55, 0.00, 0.00, 0.00, -61212.17, -0.03, 0.00, -0.03
247, 16177.92, -9678.46, -39264.68, -41829.79, 0.00, 0.00, 0.00, -61098.36, 0.00, 0.00, -0.03
248, 16177.39, -9679.83, -39250.58, -41830.44, 0.00, 0.00, 0.00, -61090.94, 0.00, -0.03, 0.00
249, 16174.95, -9678.73, -39261.62, -41840.32, 0.00, 0.00, 0.00, -61206.94, -0.03, 0.00, -0.03
250, 16169.65, -9682.69, -39284.22, -41839.65, 0.00, 0.00, 0.00, -61232.29, -0.03, -0.03, 0.00
251, 16173.97, -9681.90, -39280.06, -41827.33, 0.00, 0.00, 0.00, -61124.24, -0.03, 0.00, -0.03
252, 16183.71, -9672.31, -39250.46, -41821.43, 0.00, 0.00, 0.00, -61079.87, -0.03, 0.00, -0.03
253, 16166.70, -9687.85, -39263.45, -41854.85, 0.00, 0.00, 0.00, -61195.97, 0.00, -0.03, -0.03
254, 16165.61, -9691.13, -39284.17, -41862.07, 0.00, 0.00, 0.00, -61249.84, 0.00, -0.03, 0.00
255, 16174.30, -9683.67, -39275.86, -41843.34, 0.00, 0.00, 0.00, -61147.64, -0.03, -0.03, 0.00
0, 16174.75, -9682.71, -39250.46, -41836.81, 0.00, 0.00, 0.00, -61080.79, 0.00, -0.03, -0.03
1, 16173.39, -9681.46, -39245.75, -41848.81, 0.00, 0.00, 0.00, -61168.50, -0.03, -0.03, -0.03
2, 16166.46, -9693.82, -39279.23, -41870.09, 0.00, 0.00, 0.00, -61256.83, -0.03, 0.00, -0.03
3, 16160.15, -9702.31, -39294.75, -41869.33, 0.00, 0.00, 0.00, -61191.50, 0.00, -0.03, 0.00
4, 16160.40, -9706.02, -39276.30, -41860.79, 0.00, 0.00, 0.00, -61106.56, 0.00, 0.00, -0.03
5, 16162.08, -9704.72, -39266.05, -41870.27, 0.00, 0.00, 0.00, -61172.95, -0.03, -0.03, -0.03
6, 16160.85, -9702.49, -39286.54, -41879.43, 0.00, 0.00, 0.00, -61266.78, -0.03, -0.03, 0.00
7, 16161.79, -9699.52, -39301.36, -41867.83, 0.00, 0.00, 0.00, -61215.37, 0.00, 0.00, 0.00
8, 16164.31, -9695.65, -39281.94, -41858.22, 0.00, 0.00, 0.00, -61112.24, 0.00, -0.03, -0.03
9, 16164.31, -9696.10, -39269.36, -41867.90, 0.00, 0.00, 0.00, -61150.84, -0.03, -0.03, 0.00
10, 16170.44, -9693.46, -39286.65, -41876.57, 0.00, 0.00, 0.00, -61256.43, -0.03, -0.03, -0.03
11, 16170.53, -9692.88, -39301.38, -41863.16, 0.00, 0.00, 0.00, -61223.57, -0.03, 0.00, 0.00
12, 16175.13, -9690.08, -39282.43, -41844.07, 0.00, 0.00, 0.00, -61102.13, -0.03, -0.03, -0.03
13, 16167.42, -9699.99, -39273.42, -41860.86, 0.00, 0.00, 0.00, -61126.90, 0.00, 0.00, 0.00
14, 16157.70, -9702.83, -39287.82, -41876.02, 0.00, 0.00, 0.00, -61245.36, 0.00, 0.00, -0.03
15, 16162.50, -9699.58, -39296.42, -41859.59, 0.00, 0.00, 0.00, -61234.43, -0.03, -0.03, -0.03
16, 16165.54, -9699.14, -39285.74, -41845.35, 0.00, 0.00, 0.00, -61123.68, -0.03, 0.00, 0.00
17, 16164.80, -9700.12, -39265.06, -41848.52, 0.00, 0.00, 0.00, -61104.57, 0.00, -0.03, -0.03
18, 16165.07, -9697.06, -39268.91, -41859.59, 0.00, 0.00, 0.00, -61213.78, -0.03, -0.03, -0.03
19, 16167.33, -9694.60, -39291.06, -41862.63, 0.00, 0.00, 0.00, -61247.09, -0.03, -0.03, -0.03
20, 16171.13, -9695.09, -39288.64, -41852.90, 0.00, 0.00, 0.00, -61144.07, -0.03, 0.00, 0.00
21, 16171.11, -9703.61, -39271.21, -41859.79, 0.00, 0.00, 0.00, -61104.06, -0.03, 0.00, -0.03
22, 16159.55, -9712.59, -39279.43, -41883.73, 0.00, 0.00, 0.00, -61214.16, 0.00, 0.00, 0.00
23, 16156.40, -9708.44, -39296.09, -41886.88, 0.00, 0.00, 0.00, -61267.52, 0.00, 0.00, 0.00
24, 16159.95, -9704.39, -39295.91, -41869.60, 0.00, 0.00, 0.00, -61173.95, 0.00, 0.00, -0.03
25, 16162.39, -9704.34, -39276.26, -41864.75, 0.00, 0.00, 0.00, -61106.11, -0.03, -0.03, -0.03
26, 16156.31, -9711.18, -39274.43, -41881.00, 0.00, 0.00, 0.00, -61189.89, -0.03, -0.03, -0.03
27, 16154.34, -9710.54, -39289.83, -41879.90, 0.00, 0.00, 0.00, -61260.79, 0.00, -0.03, -0.03
28, 16150.34, -9712.86, -39303.13, -41867.77, 0.00, 0.00, 0.00, -61193.29, 0.00, -0.03, 0.00
29, 16156.71, -9709.80, -39279.55, -41856.75, 0.00, 0.00, 0.00, -61096.57, 0.00, 0.00, -0.03
30, 16164.65, -9704.26, -39262.83, -41861.39, 0.00, 0.00, 0.00, -61150.75, -0.03, 0.00, 0.00
31, 16167.55, -9697.35, -39280.13, -41867.52, 0.00, 0.00, 0.00, -61245.50, -0.03, -0.03, -0.03
32, 16173.70, -9691.20, -39289.43, -41853.11, 0.00, 0.00, 0.00, -61193.91, -0.03, -0.03, -0.03
33, 16172.69, -9694.24, -39273.27, -41844.70, 0.00, 0.00, 0.00, -61085.19, -0.03, 0.00, 0.00
34, 16166.66, -9700.41, -39262.09, -41857.20, 0.00, 0.00, 0.00, -61119.43, -0.03, 0.00, -0.03
35, 16159.55, -9706.04, -39282.50, -41870.54, 0.00, 0.00, 0.00, -61232.40, 0.00, 0.00, -0.03
36, 16172.11, -9696.23, -39288.60, -41852.61, 0.00, 0.00, 0.00, -61205.71, -0.03, 0.00, -0.03
37, 16173.03, -9696.61, -39272.17, -41837.93, 0.00, 0.00, 0.00, -61092.25, 0.00, 0.00, 0.00
38, 16170.06, -9697.50, -39253.95, -41842.22, 0.00, 0.00, 0.00, -61099.48, -0.03, -0.03, -0.03
39, 16163.24, -9697.26, -39268.26, -41859.54, 0.00, 0.00, 0.00, -61215.64, -0.03, -0.03, 0.00
40, 16164.69, -9697.24, -39294.16, -41859.00, 0.00, 0.00, 0.00, -61231.20, -0.03, 0.00, -0.03
41, 16171.35, -9696.50, -39287.23, -41846.64, 0.00, 0.00, 0.00, -61118.43, 0.00, -0.03, -0.03
42, 16166.10, -9701.48, -39270.05, -41854.11, 0.00, 0.00, 0.00, -61099.81, 0.00, -0.03, 0.00
43, 16157.67, -9704.93, -39276.89, -41872.06, 0.00, 0.00, 0.00, -61213.47, 0.00, -0.03, -0.03
44, 16162.21, -9702.27, -39294.61, -41871.72, 0.00, 0.00, 0.00, -61248.56, 0.00, 0.00, -0.03
45, 16169.39, -9695.87, -39290.52, -41856.55, 0.00, 0.00, 0.00, -61143.35, -0.03, -0.03, -0.03
46, 16173.36, -9690.82, -39268.86, -41852.48, 0.00, 0.00, 0.00, -61085.80, 0.00, -0.03, 0.00
47, 16167.80, -9694.24, -39274.34, -41873.06, 0.00, 0.00, 0.00, -61192.01, -0.03, -0.03, -0.03
48, 16161.81, -9699.79, -39300.98, -41885.87, 0.00, 0.00, 0.00, -61265.10, -0.03, -0.03, -0.03
49, 16162.52, -9702.78, -39303.84, -41875.32, 0.00, 0.00, 0.00, -61183.47, -0.03, -0.03, -0.03
50, 16160.49, -9706.83, -39278.38, -41870.43, 0.00, 0.00, 0.00, -61104.68, -0.03, -0.03, -0.03
51, 16160.67, -9708.39, -39268.84, -41881.96, 0.00, 0.00, 0.00, -61177.32, -0.03, -0.03, -0.03
52, 16157.63, -9704.61, -39291.01, -41886.63, 0.00, 0.00, 0.00, -61267.27, -0.03, -0.03, -0.03
53, 16165.59, -9699.11, -39301.23, -41872.17, 0.00, 0.00, 0.00, -61205.02, 0.00, 0.00, -0.03
54, 16169.72, -9697.19, -39279.77, -41860.05, 0.00, 0.00, 0.00, -61104.13, -0.03, -0.03, -0.03
55, 16166.57, -9702.38, -39271.66, -41871.21, 0.00, 0.00, 0.00, -61158.71, -0.03, -0.03, -0.03
56, 16164.96, -9702.38, -39292.15, -41884.75, 0.00, 0.00, 0.00, -61265.77, 0.00, -0.03, 0.00
57, 16170.95, -9696.07, -39304.89, -41871.88, 0.00, 0.00, 0.00, -61223.84, -0.03, 0.00, -0.03
58, 16172.67, -9697.08, -39286.72, -41857.26, 0.00, 0.00, 0.00, -61108.93, -0.03, -0.03, -0.03
59, 16162.97, -9708.95, -39278.43, -41871.70, 0.00, 0.00, 0.00, -61139.98, -0.03, -0.03, -0.03
60, 16161.76, -9707.85, -39295.01, -41884.55, 0.00, 0.00, 0.00, -61255.58, 0.00, -0.03, 0.00
61, 16171.80, -9697.95, -39301.43, -41871.66, 0.00, 0.00, 0.00, -61237.45, 0.00, 0.00, 0.00
62, 16178.66, -9698.04, -39283.46, -41856.50, 0.00, 0.00, 0.00, -61122.41, -0.03, 0.00, -0.03
63, 16176.02, -9700.23, -39260.32, -41860.43, 0.00, 0.00, 0.00, -61115.23, 0.00, -0.03, -0.03
64, 16169.50, -9701.13, -39271.70, -41877.40, 0.00, 0.00, 0.00, -61227.46, 0.00, -0.03, 0.00
65, 16173.45, -9694.06, -39288.69, -41870.61, 0.00, 0.00, 0.00, -61242.57, -0.03, 0.00, -0.03
66, 16182.66, -9690.53, -39276.75, -41850.87, 0.00, 0.00, 0.00, -61130.88, 0.00, 0.00, -0.03
67, 16184.29, -9691.25, -39256.41, -41847.98, 0.00, 0.00, 0.00, -61093.33, 0.00, 0.00, 0.00
68, 16176.25, -9691.31, -39262.36, -41862.43, 0.00, 0.00, 0.00, -61200.32, -0.03, -0.03, -0.03
69, 16175.73, -9687.56, -39280.26, -41859.86, 0.00, 0.00, 0.00, -61245.30, -0.03, 0.00, -0.03
70, 16179.69, -9685.77, -39276.68, -41844.30, 0.00, 0.00, 0.00, -61147.24, 0.00, -0.03, -0.03
71, 16183.69, -9683.74, -39253.95, -41841.10, 0.00, 0.00, 0.00, -61087.14, 0.00, -0.03, -0.03
72, 16180.23, -9688.03, -39258.45, -41864.30, 0.00, 0.00, 0.00, -61185.20, 0.00, -0.03, 0.00
73, 16176.27, -9688.99, -39283.97, -41874.65, 0.00, 0.00, 0.00, -61261.88, 0.00, 0.00, 0.00
74, 16183.04, -9683.16, -39284.06, -41861.95, 0.00, 0.00, 0.00, -61179.65, 0.00, 0.00, 0.00
75, 16186.26, -9680.14, -39258.02, -41852.37, 0.00, 0.00, 0.00, -61088.43, 0.00, -0.03, 0.00
76, 16176.56, -9684.36, -39258.04, -41867.01, 0.00, 0.00, 0.00, -61164.14, 0.00, -0.03, -0.03
77, 16166.86, -9695.58, -39289.87, -41884.48, 0.00, 0.00, 0.00, -61269.71, -0.03, -0.03, 0.00
78, 16168.94, -9696.03, -39294.21, -41864.55, 0.00, 0.00, 0.00, -61205.04, -0.03, -0.03, -0.03
79, 16172.11, -9694.49, -39269.29, -41845.62, 0.00, 0.00, 0.00, -61096.75, -0.03, -0.03, -0.03
80, 16170.79, -9697.62, -39264.46, -41858.67, 0.00, 0.00, 0.00, -61147.38, -0.03, 0.00, -0.03
81, 16170.66, -9697.48, -39286.34, -41874.98, 0.00, 0.00, 0.00, -61257.57, 0.00, -0.03, -0.03
82, 16174.21, -9693.59, -39297.43, -41866.54, 0.00, 0.00, 0.00, -61227.33, -0.03, 0.00, -0.03
83, 16181.19, -9689.48, -39274.83, -41849.32, 0.00, 0.00, 0.00, -61111.32, -0.03, -0.03, -0.03
84, 16178.30, -9691.65, -39259.54, -41858.58, 0.00, 0.00, 0.00, -61125.58, -0.03, -0.03, 0.00
85, 16172.56, -9691.92, -39275.23, -41875.32, 0.00, 0.00, 0.00, -61244.20, -0.03, 0.00, -0.03
86, 16173.19, -9693.97, -39296.64, -41875.14, 0.00, 0.00, 0.00, -61246.19, 0.00, 0.00, -0.03
87, 16177.92, -9693.73, -39286.86, -41860.03, 0.00, 0.00, 0.00, -61132.36, -0.03, 0.00, -0.03
88, 16178.37, -9691.34, -39262.34, -41854.85, 0.00, 0.00, 0.00, -61107.70, 0.00, 0.00, -0.03
89, 16176.18, -9689.19, -39274.36, -41866.71, 0.00, 0.00, 0.00, -61222.19, -0.03, 0.00, -0.03
90, 16177.03, -9687.76, -39299.71, -41868.86, 0.00, 0.00, 0.00, -61252.29, 0.00, -0.03, -0.03
91, 16173.77, -9689.50, -39294.88, -41855.68, 0.00, 0.00, 0.00, -61144.22, 0.00, -0.03, 0.00
92, 16179.42, -9690.64, -39269.91, -41852.05, 0.00, 0.00, 0.00, -61098.00, -0.03, -0.03, -0.03
93, 16186.48, -9687.85, -39270.29, -41864.61, 0.00, 0.00, 0.00, -61199.75, -0.03, 0.00, -0.03
94, 16187.16, -9680.45, -39290.32, -41868.57, 0.00, 0.00, 0.00, -61251.40, -0.03, 0.00, 0.00
95, 16187.71, -9681.68, -39295.73, -41863.16, 0.00, 0.00, 0.00, -61163.13, -0.03, -0.03, -0.03
96, 16188.99, -9683.38, -39276.95, -41866.20, 0.00, 0.00, 0.00, -61099.45, 0.00, 0.00, 0.00
97, 16183.74, -9687.07, -39268.62, -41877.60, 0.00, 0.00, 0.00, -61180.70, -0.03, -0.03, -0.03
98, 16184.18, -9681.72, -39280.75, -41876.02, 0.00, 0.00, 0.00, -61252.56, 0.00, -0.03, 0.00
99, 16183.47, -9682.69, -39284.53, -41862.56, 0.00, 0.00, 0.00, -61176.12, 0.00, -0.03, -0.03
100, 16169.79, -9698.87, -39267.79, -41862.67, 0.00, 0.00, 0.00, -61090.31, 0.00, 0.00, 0.00
101, 16172.34, -9699.79, -39253.62, -41871.77, 0.00, 0.00, 0.00, -61152.23, 0.00, -0.03, 0.00
102, 16173.01, -9694.67, -39274.81, -41879.16, 0.00, 0.00, 0.00, -61250.86, -0.03, -0.03, 0.00
103, 16172.78, -9697.33, -39292.78, -41871.54, 0.00, 0.00, 0.00, -61206.72, 0.00, -0.03, 0.00
104, 16173.12, -9695.74, -39271.54, -41853.28, 0.00, 0.00, 0.00, -61095.03, 0.00, -0.03, -0.03
105, 16168.31, -9701.73, -39259.99, -41861.11, 0.00, 0.00, 0.00, -61129.05, -0.03, -0.03, -0.03
106, 16165.09, -9703.92, -39280.60, -41876.24, 0.00, 0.00, 0.00, -61245.59, 0.00, 0.00, -0.03
107, 16171.91, -9693.44, -39293.89, -41861.91, 0.00, 0.00, 0.00, -61223.41, 0.00, -0.03, -0.03
108, 16175.17, -9691.34, -39277.13, -41844.07, 0.00, 0.00, 0.00, -61103.34, 0.00, -0.03, 0.00
109, 16176.92, -9695.43, -39260.70, -41852.95, 0.00, 0.00, 0.00, -61112.26, -0.03, 0.00, 0.00
110, 16178.88, -9694.64, -39269.91, -41869.49, 0.00, 0.00, 0.00, -61229.99, 0.00, -0.03, -0.03
111, 16183.49, -9688.63, -39282.63, -41864.41, 0.00, 0.00, 0.00, -61236.67, 0.00, 0.00, -0.03
112, 16183.69, -9692.43, -39274.83, -41853.75, 0.00, 0.00, 0.00, -61124.04, 0.00, 0.00, -0.03
113, 16180.00, -9697.93, -39255.72, -41857.60, 0.00, 0.00, 0.00, -61101.71, -0.03, -0.03, -0.03
114, 16176.81, -9698.71, -39260.46, -41872.17, 0.00, 0.00, 0.00, -61211.86, 0.00, -0.03, -0.03
115, 16180.49, -9693.86, -39280.89, -41873.58, 0.00, 0.00, 0.00, -61249.54, -0.03, 0.00, -0.03
116, 16183.36, -9691.11, -39275.72, -41861.11, 0.00, 0.00, 0.00, -61141.45, -0.03, -0.03, -0.03
117, 16190.64, -9687.29, -39244.27, -41855.18, 0.00, 0.00, 0.00, -61081.04, -0.03, -0.03, 0.00
118, 16179.22, -9694.22, -39249.64, -41877.38, 0.00, 0.00, 0.00, -61187.05, 0.00, -0.03, -0.03
119, 16172.45, -9695.83, -39274.94, -41885.83, 0.00, 0.00, 0.00, -61253.39, -0.03, -0.03, -0.03
120, 16175.84, -9694.17, -39278.14, -41869.55, 0.00, 0.00, 0.00, -61164.36, -0.03, 0.00, -0.03
121, 16175.62, -9696.79, -39258.07, -41864.79, 0.00, 0.00, 0.00, -61091.09, 0.00, 0.00, 0.00
122, 16171.91, -9694.76, -39252.43, -41874.45, 0.00, 0.00, 0.00, -61171.61, -0.03, -0.03, 0.00
123, 16180.38, -9691.22, -39269.62, -41876.37, 0.00, 0.00, 0.00, -61252.11, 0.00, -0.03, 0.00
124, 16182.04, -9692.59, -39280.33, -41868.10, 0.00, 0.00, 0.00, -61187.81, 0.00, -0.03, -0.03
125, 16178.13, -9698.18, -39266.43, -41866.18, 0.00, 0.00, 0.00, -61099.54, 0.00, -0.03, -0.03
126, 16184.03, -9690.04, -39245.73, -41866.11, 0.00, 0.00, 0.00, -61146.30, 0.00, 0.00, -0.03
127, 16179.44, -9691.13, -39266.07, -41873.33, 0.00, 0.00, 0.00, -61249.43, -0.03, -0.03, -0.03
128, 16178.15, -9691.74, -39283.23, -41860.64, 0.00, 0.00, 0.00, -61211.61, -0.03, -0.03, -0.03
129, 16174.33, -9693.08, -39270.92, -41851.92, 0.00, 0.00, 0.00, -61104.93, -0.03, 0.00, 0.00
130, 16172.16, -9696.21, -39261.46, -41861.82, 0.00, 0.00, 0.00, -61136.60, -0.03, 0.00, -0.03
131, 16171.89, -9693.17, -39277.80, -41873.98, 0.00, 0.00, 0.00, -61253.14, -0.03, -0.03, 0.00
132, 16175.93, -9690.82, -39291.64, -41866.61, 0.00, 0.00, 0.00, -61238.41, -0.03, -0.03, -0.03
133, 16175.33, -9694.00, -39280.57, -41853.59, 0.00, 0.00, 0.00, -61125.00, -0.03, -0.03, -0.03
134, 16166.43, -9699.92, -39267.23, -41867.52, 0.00, 0.00, 0.00, -61125.74, -0.03, -0.03, 0.00
135, 16167.26, -9695.90, -39275.16, -41881.07, 0.00, 0.00, 0.00, -61239.57, 0.00, -0.03, -0.03
136, 16177.72, -9689.46, -39290.07, -41876.35, 0.00, 0.00, 0.00, -61252.07, 0.00, -0.03, 0.00
137, 16181.57, -9687.69, -39280.91, -41864.39, 0.00, 0.00, 0.00, -61138.34, -0.03, 0.00, -0.03
138, 16187.94, -9683.31, -39251.94, -41859.65, 0.00, 0.00, 0.00, -61097.02, -0.03, -0.03, -0.03
139, 16187.49, -9684.97, -39261.60, -41878.99, 0.00, 0.00, 0.00, -61208.39, -0.03, -0.03, 0.00
140, 16185.25, -9682.98, -39283.59, -41880.77, 0.00, 0.00, 0.00, -61251.13, -0.03, -0.03, -0.03
141, 16190.53, -9682.53, -39276.80, -41863.23, 0.00, 0.00, 0.00, -61147.38, -0.03, 0.00, -0.03
142, 16190.28, -9683.83, -39248.84, -41853.84, 0.00, 0.00, 0.00, -61081.06, 0.00, -0.03, -0.03
143, 16184.63, -9686.22, -39250.31, -41868.64, 0.00, 0.00, 0.00, -61175.79, -0.03, -0.03, -0.03
144, 16182.28, -9687.38, -39273.62, -41873.45, 0.00, 0.00, 0.00, -61250.64, -0.03, 0.00, 0.00
145, 16181.61, -9687.56, -39279.12, -41860.32, 0.00, 0.00, 0.00, -61168.16, -0.03, -0.03, 0.00
146, 16181.92, -9684.99, -39259.74, -41853.02, 0.00, 0.00, 0.00, -61083.76, -0.03, 0.00, -0.03
147, 16174.82, -9694.15, -39263.45, -41870.71, 0.00, 0.00, 0.00, -61164.61, -0.03, -0.03, -0.03
148, 16169.99, -9692.25, -39283.26, -41876.26, 0.00, 0.00, 0.00, -61255.76, -0.03, -0.03, -0.03
149, 16160.94, -9695.67, -39296.82, -41870.61, 0.00, 0.00, 0.00, -61200.13, 0.00, -0.03, -0.03
150, 16170.66, -9688.34, -39271.81, -41856.32, 0.00, 0.00, 0.00, -61092.95, 0.00, -0.03, -0.03
151, 16169.77, -9692.70, -39264.68, -41870.34, 0.00, 0.00, 0.00, -61148.25, 0.00, 0.00, -0.03
152, 16166.93, -9693.42, -39284.35, -41884.66, 0.00, 0.00, 0.00, -61258.29, -0.03, 0.00, 0.00
153, 16171.02, -9688.36, -39294.39, -41871.16, 0.00, 0.00, 0.00, -61222.90, 0.00, -0.03, 0.00
154, 16171.17, -9692.72, -39277.76, -41858.60, 0.00, 0.00, 0.00, -61107.95, -0.03, 0.00, -0.03
155, 16164.33, -9700.41, -39267.66, -41873.27, 0.00, 0.00, 0.00, -61132.49, 0.00, 0.00, -0.03
156, 16162.37, -9700.86, -39281.74, -41886.23, 0.00, 0.00, 0.00, -61247.13, -0.03, -0.03, -0.03
157, 16160.58, -9701.95, -39305.18, -41884.15, 0.00, 0.00, 0.00, -61247.82, 0.00, -0.03, 0.00
158, 16161.61, -9703.88, -39296.29, -41877.76, 0.00, 0.00, 0.00, -61133.52, -0.03, 0.00, -0.03
159, 16166.52, -9700.03, -39273.64, -41880.91, 0.00, 0.00, 0.00, -61120.06, -0.03, -0.03, -0.03
160, 16169.01, -9697.62, -39281.42, -41895.89, 0.00, 0.00, 0.00, -61234.70, -0.03, 0.00, 0.00
161, 16175.26, -9690.84, -39298.61, -41891.39, 0.00, 0.00, 0.00, -61258.20, 0.00, 0.00, 0.00
162, 16182.60, -9687.20, -39288.38, -41872.55, 0.00, 0.00, 0.00, -61144.89, 0.00, 0.00, -0.03
163, 16185.32, -9686.75, -39258.54, -41864.75, 0.00, 0.00, 0.00, -61094.78, 0.00, -0.03, -0.03
164, 16181.86, -9689.06, -39258.47, -41877.64, 0.00, 0.00, 0.00, -61196.57, -0.03, -0.03, 0.00
165, 16180.61, -9692.23, -39284.04, -41884.62, 0.00, 0.00, 0.00, -61253.07, -0.03, -0.03, -0.03
166, 16186.82, -9690.75, -39286.45, -41871.95, 0.00, 0.00, 0.00, -61158.68, 0.00, 0.00, 0.00
167, 16186.53, -9692.30, -39262.56, -41865.69, 0.00, 0.00, 0.00, -61088.12, 0.00, -0.03, -0.03
168, 16181.43, -9694.04, -39259.32, -41873.40, 0.00, 0.00, 0.00, -61173.73, -0.03, 0.00, -0.03
169, 16183.11, -9688.03, -39277.40, -41872.19, 0.00, 0.00, 0.00, -61247.84, -0.03, -0.03, -0.03
170, 16174.42, -9694.22, -39285.69, -41862.54, 0.00, 0.00, 0.00, -61175.14, 0.00, -0.03, -0.03
171, 16177.10, -9697.91, -39262.43, -41855.56, 0.00, 0.00, 0.00, -61085.77, -0.03, 0.00, -0.03
172, 16176.99, -9694.87, -39254.11, -41865.57, 0.00, 0.00, 0.00, -61156.58, 0.00, -0.03, -0.03
173, 16167.66, -9695.20, -39277.02, -41877.98, 0.00, 0.00, 0.00, -61255.67, 0.00, -0.03, -0.03
174, 16177.90, -9691.13, -39288.11, -41867.34, 0.00, 0.00, 0.00, -61205.42, 0.00, 0.00, -0.03
175, 16181.83, -9692.27, -39274.05, -41864.57, 0.00, 0.00, 0.00, -61106.40, 0.00, 0.00, -0.03
176, 16178.26, -9694.87, -39259.43, -41874.16, 0.00, 0.00, 0.00, -61144.98, -0.03, 0.00, -0.03
177, 16172.07, -9699.14, -39281.40, -41891.17, 0.00, 0.00, 0.00, -61262.02, -0.03, -0.03, -0.03
178, 16171.08, -9697.80, -39295.24, -41885.60, 0.00, 0.00, 0.00, -61234.14, -0.03, 0.00, -0.03
179, 16178.39, -9695.00, -39282.72, -41877.18, 0.00, 0.00, 0.00, -61127.28, 0.00, 0.00, -0.03
180, 16175.78, -9697.84, -39269.64, -41886.92, 0.00, 0.00, 0.00, -61143.17, -0.03, -0.03, -0.03
181, 16172.96, -9697.15, -39281.78, -41900.71, 0.00, 0.00, 0.00, -61258.55, -0.03, 0.00, 0.00
182, 16168.42, -9698.06, -39302.12, -41895.89, 0.00, 0.00, 0.00, -61265.10, -0.03, -0.03, -0.03
183, 16171.78, -9698.31, -39290.72, -41875.48, 0.00, 0.00, 0.00, -61148.61, 0.00, 0.00, -0.03
184, 16179.22, -9699.76, -39269.53, -41875.68, 0.00, 0.00, 0.00, -61127.30, -0.03, 0.00, 0.00
185, 16175.64, -9700.57, -39276.86, -41892.96, 0.00, 0.00, 0.00, -61241.25, 0.00, -0.03, -0.03
186, 16173.12, -9699.11, -39299.19, -41893.43, 0.00, 0.00, 0.00, -61274.45, -0.03, -0.03, 0.00
187, 16180.72, -9693.50, -39292.51, -41874.34, 0.00, 0.00, 0.00, -61163.54, -0.03, -0.03, 0.00
188, 16181.12, -9690.00, -39267.86, -41869.71, 0.00, 0.00, 0.00, -61111.25, 0.00, -0.03, 0.00
189, 16182.33, -9691.58, -39268.75, -41877.73, 0.00, 0.00, 0.00, -61210.88, 0.00, -0.03, -0.03
190, 16184.16, -9692.52, -39290.83, -41878.99, 0.00, 0.00, 0.00, -61270.69, 0.00, -0.03, -0.03
191, 16189.57, -9690.40, -39287.48, -41862.13, 0.00, 0.00, 0.00, -61174.22, 0.00, -0.03, -0.03
192, 16194.04, -9683.92, -39258.42, -41850.82, 0.00, 0.00, 0.00, -61097.17, -0.03, 0.00, -0.03
193, 16189.82, -9682.82, -39253.73, -41862.60, 0.00, 0.00, 0.00, -61175.96, 0.00, -0.03, 0.00
194, 16179.20, -9689.39, -39281.31, -41875.28, 0.00, 0.00, 0.00, -61263.02, -0.03, 0.00, 0.00
195, 16184.67, -9690.87, -39286.54, -41865.17, 0.00, 0.00, 0.00, -61190.78, -0.03, 0.00, -0.03
196, 16185.79, -9695.11, -39261.87, -41857.42, 0.00, 0.00, 0.00, -61096.17, -0.03, -0.03, -0.03
197, 16176.43, -9700.30, -39249.98, -41868.26, 0.00, 0.00, 0.00, -61156.25, -0.03, 0.00, 0.00
198, 16176.27, -9696.46, -39265.98, -41876.95, 0.00, 0.00, 0.00, -61255.00, 0.00, -0.03, -0.03
199, 16184.05, -9692.36, -39280.35, -41865.91, 0.00, 0.00, 0.00, -61208.66, -0.03, -0.03, 0.00
200, 16183.18, -9694.64, -39271.77, -41857.06, 0.00, 0.00, 0.00, -61103.05, -0.03, -0.03, -0.03
201, 16178.66, -9696.77, -39259.39, -41866.52, 0.00, 0.00, 0.00, -61137.09, -0.03, -0.03, 0.00
202, 16170.35, -9701.15, -39282.16, -41887.86, 0.00, 0.00, 0.00, -61259.40, -0.03, -0.03, 0.00
203, 16173.59, -9700.30, -39296.94, -41880.08, 0.00, 0.00, 0.00, -61242.91, 0.00, -0.03, 0.00
204, 16182.73, -9694.08, -39274.25, -41855.90, 0.00, 0.00, 0.00, -61117.94, 0.00, -0.03, -0.03
205, 16174.44, -9699.03, -39262.29, -41867.97, 0.00, 0.00, 0.00, -61123.10, -0.03, -0.03, -0.03
206, 16163.57, -9708.21, -39286.79, -41893.63, 0.00, 0.00, 0.00, -61250.68, 0.00, -0.03, -0.03
207, 16169.54, -9701.86, -39302.79, -41887.52, 0.00, 0.00, 0.00, -61260.92, 0.00, -0.03, -0.03
208, 16175.26, -9697.46, -39289.07, -41871.68, 0.00, 0.00, 0.00, -61141.45, -0.03, 0.00, -0.03
209, 16170.62, -9702.89, -39268.82, -41874.45, 0.00, 0.00, 0.00, -61112.08, 0.00, -0.03, 0.00
210, 16167.82, -9702.98, -39273.38, -41889.27, 0.00, 0.00, 0.00, -61223.57, 0.00, -0.03, 0.00
211, 16171.20, -9697.24, -39287.79, -41884.66, 0.00, 0.00, 0.00, -61258.17, -0.03, -0.03, 0.00
212, 16183.85, -9689.12, -39278.96, -41865.35, 0.00, 0.00, 0.00, -61148.69, -0.03, 0.00, -0.03
213, 16184.85, -9691.18, -39255.63, -41863.63, 0.00, 0.00, 0.00, -61088.88, -0.03, 0.00, -0.03
214, 16182.84, -9689.30, -39253.84, -41876.13, 0.00, 0.00, 0.00, -61186.20, 0.00, -0.03, -0.03
215, 16180.34, -9688.45, -39275.66, -41877.71, 0.00, 0.00, 0.00, -61253.48, -0.03, -0.03, -0.03
216, 16180.79, -9688.83, -39276.86, -41858.45, 0.00, 0.00, 0.00, -61159.45, -0.03, 0.00, 0.00
217, 16174.21, -9698.18, -39255.05, -41851.34, 0.00, 0.00, 0.00, -61070.73, 0.00, -0.03, -0.03
218, 16173.59, -9700.92, -39249.91, -41863.32, 0.00, 0.00, 0.00, -61148.45, -0.03, 0.00, 0.00
219, 16175.71, -9693.35, -39270.32, -41870.52, 0.00, 0.00, 0.00, -61242.57, 0.00, 0.00, -0.03
220, 16188.43, -9686.20, -39274.70, -41851.74, 0.00, 0.00, 0.00, -61175.11, -0.03, 0.00, 0.00
221, 16183.20, -9692.30, -39257.78, -41846.31, 0.00, 0.00, 0.00, -61074.51, -0.03, -0.03, -0.03
222, 16183.15, -9696.52, -39251.32, -41863.86, 0.00, 0.00, 0.00, -61131.75, 0.00, -0.03, 0.00
223, 16181.86, -9694.11, -39267.86, -41875.25, 0.00, 0.00, 0.00, -61242.04, -0.03, -0.03, -0.03
224, 16183.00, -9693.21, -39276.53, -41862.25, 0.00, 0.00, 0.00, -61202.83, 0.00, 0.00, -0.03
225, 16182.46, -9697.57, -39260.93, -41854.18, 0.00, 0.00, 0.00, -61093.55, -0.03, 0.00, -0.03
226, 16177.25, -9704.43, -39248.81, -41864.55, 0.00, 0.00, 0.00, -61121.40, -0.03, -0.03, -0.03
227, 16179.40, -9701.48, -39261.15, -41876.59, 0.00, 0.00, 0.00, -61234.73, -0.03, -0.03, -0.03
228, 16172.25, -9706.45, -39290.63, -41883.41, 0.00, 0.00, 0.00, -61235.78, 0.00, -0.03, -0.03
229, 16181.17, -9697.39, -39276.44, -41864.64, 0.00, 0.00, 0.00, -61113.00, -0.03, -0.03, -0.03
230, 16185.86, -9691.25, -39257.48, -41868.19, 0.00, 0.00, 0.00, -61103.12, -0.03, -0.03, 0.00
231, 16186.13, -9693.55, -39267.48, -41884.53, 0.00, 0.00, 0.00, -61219.66, -0.03, 0.00, 0.00
232, 16183.20, -9692.95, -39285.85, -41881.51, 0.00, 0.00, 0.00, -61240.34, -0.03, -0.03, 0.00
233, 16185.95, -9687.83, -39274.83, -41862.74, 0.00, 0.00, 0.00, -61123.84, -0.03, -0.03, -0.03
234, 16176.36, -9697.13, -39256.79, -41866.76, 0.00, 0.00, 0.00, -61089.84, -0.03, -0.03, -0.03
235, 16176.31, -9696.28, -39253.04, -41877.33, 0.00, 0.00, 0.00, -61190.96, -0.03, -0.03, -0.03
236, 16188.43, -9686.78, -39265.91, -41871.84, 0.00, 0.00, 0.00, -61230.28, -0.03, -0.03, 0.00
237, 16188.38, -9684.03, -39264.77, -41855.41, 0.00, 0.00, 0.00, -61129.49, -0.03, 0.00, -0.03
238, 16187.62, -9686.67, -39242.38, -41850.00, 0.00, 0.00, 0.00, -61066.55, 0.00, -0.03, -0.03
239, 16180.61, -9694.64, -39243.94, -41869.24, 0.00, 0.00, 0.00, -61165.86, -0.03, 0.00, -0.03
240, 16169.77, -9705.69, -39271.95, -41879.19, 0.00, 0.00, 0.00, -61245.99, -0.03, -0.03, -0.03
241, 16167.98, -9705.71, -39283.32, -41869.93, 0.00, 0.00, 0.00, -61171.22, -0.03, 0.00, 0.00
242, 16171.78, -9703.18, -39262.38, -41858.36, 0.00, 0.00, 0.00, -61083.83, -0.03, -0.03, -0.03
243, 16174.35, -9705.62, -39255.79, -41868.75, 0.00, 0.00, 0.00, -61155.64, 0.00, -0.03, 0.00
244, 16167.87, -9707.29, -39280.55, -41884.80, 0.00, 0.00, 0.00, -61259.60, -0.03, 0.00, -0.03
245, 16170.77, -9700.34, -39289.47, -41874.38, 0.00, 0.00, 0.00, -61206.92, -0.03, -0.03, -0.03
246, 16170.75, -9698.58, -39270.07, -41863.63, 0.00, 0.00, 0.00, -61103.39, -0.03, -0.03, -0.03
247, 16168.63, -9703.21, -39259.12, -41874.02, 0.00, 0.00, 0.00, -61151.33, -0.03, 0.00, 0.00
248, 16162.52, -9709.46, -39281.09, -41889.61, 0.00, 0.00, 0.00, -61266.71, -0.03, 0.00, -0.03
249, 16159.48, -9710.02, -39299.53, -41880.06, 0.00, 0.00, 0.00, -61239.75, -0.03, -0.03, 0.00
250, 16162.86, -9710.25, -39283.79, -41866.58, 0.00, 0.00, 0.00, -61126.66, 0.00, 0.00, -0.03
251, 16158.48, -9714.38, -39269.82, -41879.81, 0.00, 0.00, 0.00, -61146.04, 0.00, -0.03, 0.00
252, 16154.48, -9719.77, -39290.70, -41902.05, 0.00, 0.00, 0.00, -61269.30, -0.03, 0.00, 0.00
253, 16158.32, -9711.99, -39304.87, -41894.77, 0.00, 0.00, 0.00, -61265.04, 0.00, -0.03, -0.03
254, 16162.32, -9707.52, -39291.53, -41879.21, 0.00, 0.00, 0.00, -61148.45, -0.03, 0.00, -0.03
255, 16163.51, -9706.56, -39271.48, -41882.96, 0.00, 0.00, 0.00, -61134.50, 0.00, 0.00, 0.00
0, 16165.76, -9703.00, -39272.80, -41894.25, 0.00, 0.00, 0.00, -61245.05, -0.03, -0.03, -0.03
1, 16165.52, -9706.22, -39296.36, -41897.89, 0.00, 0.00, 0.00, -61277.21, -0.03, -0.03, -0.03
2, 16171.00, -9705.46, -39287.86, -41883.08, 0.00, 0.00, 0.00, -61162.77, 0.00, -0.03, -0.03
3, 16177.79, -9701.37, -39259.99, -41875.32, 0.00, 0.00, 0.00, -61110.76, 0.00, 0.00, -0.03
4, 16168.63, -9706.51, -39269.20, -41890.34, 0.00, 0.00, 0.00, -61217.05, 0.00, 0.00, 0.00
5, 16170.28, -9707.74, -39297.02, -41894.14, 0.00, 0.00, 0.00, -61278.87, 0.00, 0.00, -0.03
6, 16173.90, -9700.90, -39291.08, -41876.19, 0.00, 0.00, 0.00, -61178.13, -0.03, -0.03, 0.00
7, 16178.75, -9698.78, -39261.40, -41867.30, 0.00, 0.00, 0.00, -61098.74, -0.03, -0.03, -0.03
8, 16176.87, -9698.56, -39258.20, -41882.96, 0.00, 0.00, 0.00, -61186.09, 0.00, -0.03, 0.00
9, 16180.29, -9691.96, -39274.94, -41886.77, 0.00, 0.00, 0.00, -61261.41, -0.03, -0.03, 0.00
10, 16189.03, -9684.61, -39274.45, -41864.17, 0.00, 0.00, 0.00, -61177.50, -0.03, -0.03, 0.00
11, 16191.89, -9685.99, -39251.29, -41849.86, 0.00, 0.00, 0.00, -61081.53, -0.03, -0.03, -0.03
12, 16179.98, -9696.66, -39248.97, -41865.40, 0.00, 0.00, 0.00, -61147.93, -0.03, 0.00, -0.03
13, 16170.39, -9700.77, -39270.43, -41878.29, 0.00, 0.00, 0.00, -61252.65, -0.03, 0.00, -0.03
14, 16159.33, -9708.79, -39289.80, -41876.48, 0.00, 0.00, 0.00, -61214.72, 0.00, -0.03, -0.03
15, 16165.36, -9708.86, -39272.66, -41868.32, 0.00, 0.00, 0.00, -61109.40, 0.00, 0.00, -0.03
16, 16163.64, -9712.10, -39259.63, -41879.48, 0.00, 0.00, 0.00, -61147.57, -0.03, -0.03, 0.00
17, 16153.29, -9716.77, -39282.81, -41898.95, 0.00, 0.00, 0.00, -61268.12, -0.03, -0.03, -0.03
18, 16150.81, -9715.68, -39302.19, -41894.03, 0.00, 0.00, 0.00, -61252.81, -0.03, -0.03, -0.03
19, 16147.91, -9721.76, -39292.09, -41879.84, 0.00, 0.00, 0.00, -61139.73, -0.03, -0.03, 0.00
20, 16143.68, -9731.84, -39280.08, -41890.57, 0.00, 0.00, 0.00, -61151.46, -0.03, -0.03, -0.03
21, 16140.82, -9729.24, -39292.11, -41908.38, 0.00, 0.00, 0.00, -61267.56, -0.03, -0.03, -0.03
22, 16143.59, -9728.86, -39316.67, -41912.67, 0.00, 0.00, 0.00, -61279.52, 0.00, -0.03, 0.00
23, 16153.81, -9722.63, -39303.66, -41894.75, 0.00, 0.00, 0.00, -61160.54, 0.00, -0.03, -0.03
24, 16157.70, -9721.94, -39277.11, -41892.51, 0.00, 0.00, 0.00, -61129.02, 0.00, -0.03, -0.03
25, 16159.80, -9717.98, -39278.16, -41899.82, 0.00, 0.00, 0.00, -61234.41, -0.03, 0.00, -0.03
26, 16163.93, -9712.95, -39298.93, -41898.68, 0.00, 0.00, 0.00, -61269.80, 0.00, 0.00, -0.03
27, 16173.12, -9705.91, -39285.92, -41881.45, 0.00, 0.00, 0.00, -61155.18, 0.00, 0.00, -0.03
28, 16170.03, -9707.16, -39260.82, -41878.54, 0.00, 0.00, 0.00, -61098.29, -0.03, -0.03, 0.00
29, 16165.56, -9713.08, -39266.49, -41896.06, 0.00, 0.00, 0.00, -61200.57, 0.00, -0.03, -0.03
30, 16168.07, -9706.11, -39285.65, -41893.14, 0.00, 0.00, 0.00, -61259.96, -0.03, -0.03, -0.03
31, 16170.62, -9700.17, -39285.78, -41873.36, 0.00, 0.00, 0.00, -61168.83, -0.03, 0.00, -0.03
32, 16165.34, -9705.73, -39264.64, -41868.37, 0.00, 0.00, 0.00, -61091.88, -0.03, -0.03, -0.03
33, 16162.05, -9708.84, -39255.05, -41882.12, 0.00, 0.00, 0.00, -61170.66, 0.00, -0.03, -0.03
34, 16167.24, -9706.00, -39272.26, -41889.67, 0.00, 0.00, 0.00, -61256.74, -0.03, -0.03, -0.03
35, 16167.93, -9703.41, -39282.65, -41877.29, 0.00, 0.00, 0.00, -61191.56, -0.03, 0.00, -0.03
36, 16169.68, -9706.22, -39267.75, -41866.76, 0.00, 0.00, 0.00, -61097.33, -0.03, -0.03, 0.00
37, 16167.17, -9707.79, -39265.33, -41878.88, 0.00, 0.00, 0.00, -61161.59, -0.03, -0.03, -0.03
38, 16163.57, -9703.74, -39284.80, -41888.78, 0.00, 0.00, 0.00, -61266.78, 0.00, -0.03, -0.03
39, 16171.64, -9697.62, -39296.29, -41877.64, 0.00, 0.00, 0.00, -61222.81, -0.03, -0.03, 0.00
40, 16178.46, -9696.46, -39279.30, -41867.23, 0.00, 0.00, 0.00, -61111.70, -0.03, -0.03, -0.03
41, 16177.79, -9698.13, -39259.56, -41873.40, 0.00, 0.00, 0.00, -61140.47, 0.00, -0.03, -0.03
42, 16168.42, -9704.01, -39278.70, -41893.47, 0.00, 0.00, 0.00, -61260.63, -0.03, 0.00, -0.03
43, 16167.87, -9703.32, -39295.28, -41887.52, 0.00, 0.00, 0.00, -61250.86, 0.00, -0.03, -0.03
44, 16172.11, -9701.30, -39272.41, -41864.66, 0.00, 0.00, 0.00, -61125.76, 0.00, -0.03, -0.03
45, 16165.14, -9708.77, -39258.96, -41875.79, 0.00, 0.00, 0.00, -61125.78, -0.03, 0.00, 0.00
46, 16158.19, -9712.15, -39278.56, -41898.61, 0.00, 0.00, 0.00, -61247.24, 0.00, -0.03, 0.00
47, 16162.72, -9705.37, -39300.96, -41895.57, 0.00, 0.00, 0.00, -61265.70, -0.03, -0.03, 0.00
48, 16174.37, -9700.32, -39289.16, -41876.37, 0.00, 0.00, 0.00, -61147.48, -0.03, -0.03, -0.03
49, 16173.39, -9704.37, -39271.25, -41883.21, 0.00, 0.00, 0.00, -61118.38, -0.03, 0.00, 0.00
50, 16167.49, -9706.67, -39280.75, -41901.25, 0.00, 0.00, 0.00, -61231.80, 0.00, -0.03, -0.03
51, 16169.36, -9702.45, -39298.93, -41896.29, 0.00, 0.00, 0.00, -61270.29, 0.00, 0.00, -0.03
52, 16182.06, -9699.58, -39290.61, -41873.96, 0.00, 0.00, 0.00, -61162.44, -0.03, -0.03, 0.00
53, 16180.07, -9703.27, -39269.29, -41872.73, 0.00, 0.00, 0.00, -61100.12, -0.03, 0.00, 0.00
54, 16171.08, -9705.60, -39274.14, -41889.83, 0.00, 0.00, 0.00, -61197.78, -0.03, 0.00, -0.03
55, 16168.36, -9702.62, -39298.63, -41893.74, 0.00, 0.00, 0.00, -61270.24, -0.03, -0.03, 0.00
56, 16180.90, -9697.17, -39294.68, -41872.55, 0.00, 0.00, 0.00, -61178.87, 0.00, -0.03, -0.03
57, 16182.64, -9698.44, -39266.43, -41861.73, 0.00, 0.00, 0.00, -61087.79, 0.00, -0.03, 0.00
58, 16173.50, -9706.09, -39261.04, -41876.13, 0.00, 0.00, 0.00, -61161.25, -0.03, -0.03, -0.03
59, 16169.23, -9706.71, -39282.50, -41886.79, 0.00, 0.00, 0.00, -61255.49, 0.00, 0.00, -0.03
60, 16169.90, -9703.70, -39290.01, -41875.46, 0.00, 0.00, 0.00, -61198.25, -0.03, -0.03, 0.00
61, 16168.92, -9705.10, -39271.84, -41868.70, 0.00, 0.00, 0.00, -61097.69, 0.00, -0.03, -0.03
62, 16169.34, -9701.68, -39259.70, -41878.45, 0.00, 0.00, 0.00, -61146.52, -0.03, -0.03, -0.03
63, 16170.75, -9699.23, -39276.33, -41888.93, 0.00, 0.00, 0.00, -61256.61, 0.00, 0.00, -0.03
64, 16163.40, -9706.96, -39293.49, -41885.49, 0.00, 0.00, 0.00, -61226.05, -0.03, 0.00, 0.00
65, 16163.66, -9712.08, -39281.49, -41875.79, 0.00, 0.00, 0.00, -61117.29, -0.03, -0.03, -0.03
66, 16166.84, -9710.47, -39260.95, -41879.48, 0.00, 0.00, 0.00, -61135.13, -0.03, -0.03, -0.03
67, 16161.32, -9714.67, -39272.46, -41894.12, 0.00, 0.00, 0.00, -61251.87, -0.03, -0.03, -0.03
68, 16158.05, -9716.91, -39290.27, -41892.69, 0.00, 0.00, 0.00, -61250.06, -0.03, -0.03, 0.00
69, 16159.71, -9719.30, -39278.81, -41878.72, 0.00, 0.00, 0.00, -61134.57, -0.03, -0.03, -0.03
70, 16161.92, -9720.46, -39258.16, -41881.42, 0.00, 0.00, 0.00, -61119.08, -0.03, -0.03, 0.00
71, 16157.32, -9718.74, -39265.96, -41895.53, 0.00, 0.00, 0.00, -61234.55, -0.03, 0.00, -0.03
72, 16149.13, -9722.83, -39291.57, -41901.90, 0.00, 0.00, 0.00, -61267.67, 0.00, 0.00, -0.03
73, 16152.29, -9720.66, -39284.20, -41881.85, 0.00, 0.00, 0.00, -61154.50, 0.00, -0.03, 0.00
74, 16162.19, -9716.24, -39256.95, -41873.71, 0.00, 0.00, 0.00, -61102.56, -0.03, -0.03, 0.00
75, 16160.33, -9716.24, -39259.59, -41887.95, 0.00, 0.00, 0.00, -61207.77, 0.00, 0.00, -0.03
76, 16162.61, -9708.66, -39277.54, -41886.41, 0.00, 0.00, 0.00, -61256.90, -0.03, -0.03, 0.00
77, 16169.88, -9703.29, -39278.12, -41867.32, 0.00, 0.00, 0.00, -61155.98, 0.00, -0.03, -0.03
78, 16169.21, -9706.51, -39258.76, -41859.59, 0.00, 0.00, 0.00, -61086.11, 0.00, -0.03, -0.03
79, 16169.65, -9706.69, -39259.99, -41872.28, 0.00, 0.00, 0.00, -61178.33, -0.03, -0.03, -0.03
80, 16166.86, -9704.48, -39279.88, -41876.48, 0.00, 0.00, 0.00, -61251.64, -0.03, -0.03, 0.00
81, 16169.88, -9701.33, -39280.44, -41858.60, 0.00, 0.00, 0.00, -61169.14, -0.03, -0.03, 0.00
82, 16171.58, -9700.30, -39253.13, -41844.41, 0.00, 0.00, 0.00, -61072.07, 0.00, 0.00, -0.03
83, 16165.63, -9705.55, -39247.16, -41855.38, 0.00, 0.00, 0.00, -61141.05, -0.03, 0.00, -0.03
84, 16167.55, -9705.75, -39267.36, -41866.20, 0.00, 0.00, 0.00, -61238.73, -0.03, -0.03, -0.03
85, 16171.17, -9702.71, -39278.59, -41855.25, 0.00, 0.00, 0.00, -61183.07, -0.03, 0.00, -0.03
86, 16174.88, -9701.42, -39259.36, -41842.17, 0.00, 0.00, 0.00, -61071.94, 0.00, -0.03, -0.03
87, 16169.43, -9705.26, -39248.52, -41857.13, 0.00, 0.00, 0.00, -61114.88, -0.03, -0.03, -0.03
88, 16165.52, -9706.51, -39268.59, -41876.44, 0.00, 0.00, 0.00, -61233.18, -0.03, -0.03, -0.03
89, 16166.48, -9705.22, -39280.48, -41868.23, 0.00, 0.00, 0.00, -61210.96, 0.00, -0.03, -0.03
90, 16165.79, -9713.33, -39267.92, -41857.98, 0.00, 0.00, 0.00, -61098.80, -0.03, 0.00, -0.03
91, 16160.38, -9721.20, -39252.72, -41870.76, 0.00, 0.00, 0.00, -61110.20, -0.03, -0.03, -0.03
92, 16149.27, -9726.61, -39269.71, -41893.98, 0.00, 0.00, 0.00, -61227.33, -0.03, -0.03, -0.03
93, 16156.87, -9718.43, -39281.98, -41884.48, 0.00, 0.00, 0.00, -61227.04, -0.03, -0.03, -0.03
94, 16169.05, -9708.82, -39265.73, -41862.94, 0.00, 0.00, 0.00, -61109.93, 0.00, 0.00, 0.00
95, 16168.80, -9706.83, -39243.89, -41864.12, 0.00, 0.00, 0.00, -61085.73, -0.03, -0.03, 0.00
96, 16164.42, -9706.94, -39255.21, -41883.17, 0.00, 0.00, 0.00, -61199.61, 0.00, 0.00, -0.03
97, 16169.45, -9706.02, -39279.70, -41884.17, 0.00, 0.00, 0.00, -61236.94, -0.03, 0.00, -0.03
98, 16172.69, -9703.99, -39275.34, -41867.70, 0.00, 0.00, 0.00, -61128.33, 0.00, 0.00, 0.00
99, 16174.50, -9703.36, -39249.73, -41858.13, 0.00, 0.00, 0.00, -61071.87, -0.03, 0.00, -0.03
100, 16171.17, -9703.83, -39252.97, -41871.77, 0.00, 0.00, 0.00, -61173.75, -0.03, -0.03, 0.00
101, 16169.03, -9706.49, -39278.63, -41879.05, 0.00, 0.00, 0.00, -61240.69, 0.00, -0.03, 0.00
102, 16178.15, -9695.78, -39268.06, -41854.78, 0.00, 0.00, 0.00, -61141.32, -0.03, 0.00, 0.00
103, 16178.86, -9696.14, -39239.54, -41845.19, 0.00, 0.00, 0.00, -61058.48, -0.03, -0.03, -0.03
104, 16167.64, -9707.56, -39237.70, -41865.44, 0.00, 0.00, 0.00, -61147.31, -0.03, -0.03, -0.03
105, 16167.37, -9706.71, -39257.13, -41871.45, 0.00, 0.00, 0.00, -61228.80, -0.03, 0.00, -0.03
106, 16165.70, -9708.12, -39270.14, -41862.74, 0.00, 0.00, 0.00, -61165.14, -0.03, 0.00, 0.00
107, 16172.94, -9708.57, -39245.04, -41849.44, 0.00, 0.00, 0.00, -61060.76, -0.03, -0.03, 0.00
108, 16172.47, -9708.75, -39231.02, -41857.66, 0.00, 0.00, 0.00, -61112.71, 0.00, 0.00, 0.00
109, 16176.78, -9702.47, -39245.55, -41861.71, 0.00, 0.00, 0.00, -61213.98, -0.03, -0.03, 0.00
110, 16176.72, -9701.71, -39262.07, -41853.73, 0.00, 0.00, 0.00, -61175.07, -0.03, -0.03, -0.03
111, 16173.86, -9707.23, -39252.16, -41846.98, 0.00, 0.00, 0.00, -61073.10, 0.00, 0.00, -0.03
112, 16170.95, -9708.88, -39239.49, -41857.71, 0.00, 0.00, 0.00, -61108.84, 0.00, -0.03, 0.00
113, 16158.72, -9713.96, -39259.39, -41877.15, 0.00, 0.00, 0.00, -61230.07, -0.03, 0.00, -0.03
114, 16158.59, -9714.31, -39276.55, -41874.14, 0.00, 0.00, 0.00, -61218.03, -0.03, -0.03, -0.03
115, 16169.23, -9710.67, -39259.68, -41862.09, 0.00, 0.00, 0.00, -61104.28, -0.03, 0.00, -0.03
116, 16164.76, -9715.05, -39240.48, -41870.20, 0.00, 0.00, 0.00, -61105.46, -0.03, 0.00, 0.00
117, 16159.04, -9716.50, -39253.24, -41884.84, 0.00, 0.00, 0.00, -61224.67, -0.03, 0.00, 0.00
118, 16160.40, -9712.75, -39274.20, -41880.82, 0.00, 0.00, 0.00, -61243.46, 0.00, -0.03, 0.00
119, 16167.89, -9709.17, -39269.04, -41871.45, 0.00, 0.00, 0.00, -61135.30, 0.00, -0.03, -0.03
120, 16167.53, -9714.78, -39249.64, -41874.74, 0.00, 0.00, 0.00, -61109.36, -0.03, -0.03, 0.00
121, 16166.37, -9713.40, -39250.51, -41884.91, 0.00, 0.00, 0.00, -61216.38, -0.03, -0.03, -0.03
122, 16166.99, -9706.51, -39268.80, -41881.47, 0.00, 0.00, 0.00, -61253.19, 0.00, -0.03, 0.00
123, 16169.61, -9707.23, -39266.40, -41864.08, 0.00, 0.00, 0.00, -61149.68, -0.03, -0.03, -0.03
124, 16165.88, -9716.93, -39251.20, -41865.75, 0.00, 0.00, 0.00, -61097.46, 0.00, -0.03, 0.00
125, 16171.35, -9707.61, -39246.44, -41870.29, 0.00, 0.00, 0.00, -61187.90, 0.00, -0.03, -0.03
126, 16173.07, -9701.55, -39265.84, -41868.93, 0.00, 0.00, 0.00, -61252.25, -0.03, 0.00, -0.03
127, 16178.17, -9696.75, -39265.73, -41850.45, 0.00, 0.00, 0.00, -61159.78, -0.03, 0.00, 0.00
128, 16178.35, -9695.23, -39242.09, -41842.51, 0.00, 0.00, 0.00, -61077.86, -0.03, 0.00, -0.03
129, 16179.94, -9693.75, -39234.38, -41856.95, 0.00, 0.00, 0.00, -61153.61, -0.03, 0.00, 0.00
130, 16180.79, -9693.08, -39254.67, -41865.46, 0.00, 0.00, 0.00, -61244.02, -0.03, 0.00, 0.00
131, 16179.26, -9695.63, -39266.94, -41856.48, 0.00, 0.00, 0.00, -61181.39, -0.03, 0.00, 0.00
132, 16180.27, -9698.44, -39250.71, -41847.70, 0.00, 0.00, 0.00, -61086.58, -0.03, -0.03, 0.00
133, 16179.49, -9695.65, -39235.56, -41850.24, 0.00, 0.00, 0.00, -61133.38, -0.03, -0.03, -0.03
134, 16177.39, -9692.30, -39250.85, -41856.46, 0.00, 0.00, 0.00, -61234.41, 0.00, -0.03, -0.03
135, 16167.44, -9700.43, -39274.16, -41857.48, 0.00, 0.00, 0.00, -61208.86, -0.03, -0.03, -0.03
136, 16173.45, -9701.30, -39253.04, -41842.64, 0.00, 0.00, 0.00, -61094.51, -0.03, -0.03, -0.03
137, 16177.99, -9696.50, -39228.41, -41840.92, 0.00, 0.00, 0.00, -61107.90, -0.03, -0.03, 0.00
138, 16172.89, -9697.91, -39245.41, -41855.59, 0.00, 0.00, 0.00, -61224.27, -0.03, 0.00, 0.00
139, 16172.34, -9696.23, -39266.89, -41856.08, 0.00, 0.00, 0.00, -61223.35, -0.03, -0.03, -0.03
140, 16174.08, -9698.91, -39255.70, -41848.81, 0.00, 0.00, 0.00, -61109.11, -0.03, 0.00, -0.03
141, 16175.82, -9703.58, -39243.07, -41860.19, 0.00, 0.00, 0.00, -61107.01, 0.00, -0.03, -0.03
142, 16177.70, -9698.76, -39253.21, -41873.96, 0.00, 0.00, 0.00, -61222.41, 0.00, 0.00, -0.03
143, 16174.17, -9700.14, -39270.09, -41868.64, 0.00, 0.00, 0.00, -61240.80, -0.03, -0.03, -0.03
144, 16174.75, -9701.73, -39263.03, -41851.79, 0.00, 0.00, 0.00, -61125.05, -0.03, -0.03, 0.00
145, 16177.34, -9702.02, -39245.68, -41857.24, 0.00, 0.00, 0.00, -61091.27, -0.03, -0.03, 0.00
146, 16181.86, -9700.75, -39250.49, -41876.35, 0.00, 0.00, 0.00, -61200.88, 0.00, -0.03, 0.00
147, 16177.05, -9703.34, -39277.13, -41882.54, 0.00, 0.00, 0.00, -61255.20, -0.03, -0.03, 0.00
148, 16185.28, -9693.55, -39266.49, -41855.65, 0.00, 0.00, 0.00, -61148.02, 0.00, 0.00, -0.03
149, 16189.64, -9690.46, -39239.31, -41844.03, 0.00, 0.00, 0.00, -61077.19, -0.03, -0.03, -0.03
150, 16180.11, -9700.59, -39247.74, -41866.13, 0.00, 0.00, 0.00, -61177.19, 0.00, -0.03, -0.03
151, 16178.37, -9700.41, -39270.27, -41874.50, 0.00, 0.00, 0.00, -61254.98, 0.00, -0.03, -0.03
152, 16184.58, -9694.62, -39271.21, -41855.43, 0.00, 0.00, 0.00, -61168.77, 0.00, -0.03, 0.00
153, 16187.87, -9697.50, -39250.80, -41848.90, 0.00, 0.00, 0.00, -61075.31, 0.00, -0.03, 0.00
154, 16189.46, -9697.10, -39242.44, -41862.29, 0.00, 0.00, 0.00, -61144.00, 0.00, -0.03, 0.00
155, 16184.74, -9694.85, -39261.38, -41871.75, 0.00, 0.00, 0.00, -61242.35, 0.00, -0.03, -0.03
156, 16186.04, -9697.91, -39274.63, -41866.70, 0.00, 0.00, 0.00, -61188.39, -0.03, -0.03, -0.03
157, 16184.72, -9698.22, -39250.69, -41851.25, 0.00, 0.00, 0.00, -61077.75, -0.03, -0.03, -0.03
158, 16182.24, -9700.37, -39237.19, -41861.82, 0.00, 0.00, 0.00, -61121.11, -0.03, 0.00, -0.03
159, 16180.09, -9699.07, -39251.52, -41873.45, 0.00, 0.00, 0.00, -61229.74, -0.03, -0.03, 0.00
160, 16183.62, -9692.66, -39260.41, -41858.49, 0.00, 0.00, 0.00, -61192.91, -0.03, -0.03, -0.03
161, 16192.56, -9687.13, -39240.79, -41837.99, 0.00, 0.00, 0.00, -61072.14, -0.03, 0.00, 0.00
162, 16189.32, -9689.15, -39227.40, -41844.86, 0.00, 0.00, 0.00, -61088.21, 0.00, 0.00, -0.03
163, 16181.39, -9700.46, -39252.81, -41870.49, 0.00, 0.00, 0.00, -61217.27, -0.03, -0.03, -0.03
164, 16177.99, -9702.09, -39276.62, -41865.69, 0.00, 0.00, 0.00, -61222.39, 0.00, -0.03, -0.03
165, 16182.60, -9698.71, -39258.58, -41840.09, 0.00, 0.00, 0.00, -61096.46, 0.00, -0.03, 0.00
166, 16182.51, -9699.56, -39237.75, -41844.57, 0.00, 0.00, 0.00, -61080.88, -0.03, 0.00, 0.00
167, 16184.43, -9694.33, -39244.97, -41865.40, 0.00, 0.00, 0.00, -61197.71, -0.03, -0.03, -0.03
168, 16188.59, -9691.89, -39264.61, -41872.80, 0.00, 0.00, 0.00, -61230.16, -0.03, 0.00, 0.00
169, 16194.02, -9690.69, -39252.95, -41859.38, 0.00, 0.00, 0.00, -61120.04, -0.03, -0.03, -0.03
170, 16192.25, -9695.92, -39233.43, -41863.39, 0.00, 0.00, 0.00, -61077.66, 0.00, 0.00, -0.03
171, 16184.72, -9701.42, -39244.39, -41886.25, 0.00, 0.00, 0.00, -61191.41, -0.03, 0.00, -0.03
172, 16187.98, -9699.34, -39269.06, -41894.25, 0.00, 0.00, 0.00, -61251.69, 0.00, 0.00, -0.03
173, 16194.24, -9694.04, -39268.80, -41874.41, 0.00, 0.00, 0.00, -61155.04, 0.00, -0.03, 0.00
174, 16195.65, -9695.96, -39248.30, -41859.41, 0.00, 0.00, 0.00, -61081.86, -0.03, -0.03, -0.03
175, 16191.40, -9697.59, -39249.33, -41868.66, 0.00, 0.00, 0.00, -61170.44, 0.00, -0.03, -0.03
176, 16186.69, -9697.77, -39274.14, -41876.30, 0.00, 0.00, 0.00, -61256.81, -0.03, -0.03, -0.03
177, 16190.78, -9692.43, -39272.21, -41856.79, 0.00, 0.00, 0.00, -61175.43, 0.00, 0.00, 0.00
178, 16191.33, -9697.06, -39252.21, -41847.14, 0.00, 0.00, 0.00, -61084.57, 0.00, 0.00, -0.03
179, 16185.63, -9703.76, -39247.00, -41862.69, 0.00, 0.00, 0.00, -61151.64, -0.03, -0.03, -0.03
180, 16182.28, -9702.00, -39263.03, -41871.72, 0.00, 0.00, 0.00, -61253.39, 0.00, -0.03, 0.00
181, 16182.93, -9699.70, -39271.95, -41862.00, 0.00, 0.00, 0.00, -61204.64, -0.03, -0.03, 0.00
182, 16183.60, -9701.28, -39255.94, -41858.38, 0.00, 0.00, 0.00, -61100.41, -0.03, -0.03, -0.03
183, 16181.23, -9707.61, -39242.89, -41874.43, 0.00, 0.00, 0.00, -61135.37, -0.03, 0.00, -0.03
184, 16175.11, -9712.30, -39267.07, -41894.57, 0.00, 0.00, 0.00, -61258.62, -0.03, -0.03, -0.03
185, 16181.08, -9703.58, -39285.00, -41884.84, 0.00, 0.00, 0.00, -61241.12, 0.00, -0.03, -0.03
186, 16189.48, -9698.78, -39270.47, -41867.97, 0.00, 0.00, 0.00, -61122.77, 0.00, 0.00, 0.00
187, 16181.54, -9708.05, -39256.86, -41875.57, 0.00, 0.00, 0.00, -61126.86, -0.03, -0.03, -0.03
188, 16177.61, -9702.87, -39268.86, -41886.63, 0.00, 0.00, 0.00, -61245.43, -0.03, -0.03, -0.03
189, 16184.54, -9691.47, -39284.33, -41879.59, 0.00, 0.00, 0.00, -61250.50, -0.03, 0.00, 0.00
190, 16189.79, -9689.84, -39267.45, -41863.86, 0.00, 0.00, 0.00, -61129.11, -0.03, 0.00, -0.03
191, 16178.48, -9704.55, -39248.12, -41870.74, 0.00, 0.00, 0.00, -61102.61, -0.03, 0.00, -0.03
192, 16176.99, -9701.26, -39253.62, -41882.00, 0.00, 0.00, 0.00, -61210.36, 0.00, -0.03, 0.00
193, 16184.90, -9692.07, -39276.13, -41881.36, 0.00, 0.00, 0.00, -61250.50, -0.03, -0.03, -0.03
194, 16189.79, -9687.16, -39269.04, -41859.65, 0.00, 0.00, 0.00, -61141.38, 0.00, -0.03, -0.03
195, 16191.98, -9689.10, -39244.23, -41851.43, 0.00, 0.00, 0.00, -61080.03, -0.03, -0.03, -0.03
196, 16184.70, -9693.46, -39251.88, -41869.58, 0.00, 0.00, 0.00, -61186.40, -0.03, -0.03, -0.03
197, 16182.42, -9688.32, -39267.63, -41865.46, 0.00, 0.00, 0.00, -61248.54, 0.00, -0.03, 0.00
198, 16181.48, -9692.32, -39271.05, -41852.77, 0.00, 0.00, 0.00, -61157.16, 0.00, -0.03, -0.03
199, 16190.24, -9690.96, -39246.80, -41846.20, 0.00, 0.00, 0.00, -61077.28, -0.03, -0.03, -0.03
200, 16190.46, -9689.79, -39238.06, -41858.02, 0.00, 0.00, 0.00, -61153.99, 0.00, 0.00, -0.03
201, 16186.19, -9690.84, -39259.45, -41865.04, 0.00, 0.00, 0.00, -61242.86, -0.03, -0.03, 0.00
202, 16190.17, -9685.17, -39266.98, -41850.71, 0.00, 0.00, 0.00, -61174.02, -0.03, -0.03, 0.00
203, 16195.83, -9685.93, -39247.92, -41841.64, 0.00, 0.00, 0.00, -61076.74, 0.00, 0.00, 0.00
204, 16191.74, -9690.35, -39234.60, -41854.22, 0.00, 0.00, 0.00, -61132.62, -0.03, -0.03, -0.03
205, 16190.22, -9693.59, -39252.59, -41868.48, 0.00, 0.00, 0.00, -61240.74, 0.00, -0.03, -0.03
206, 16190.46, -9692.97, -39267.70, -41859.21, 0.00, 0.00, 0.00, -61204.30, -0.03, 0.00, -0.03
207, 16189.57, -9696.37, -39256.90, -41848.97, 0.00, 0.00, 0.00, -61096.32, -0.03, -0.03, 0.00
208, 16178.86, -9705.55, -39249.35, -41860.59, 0.00, 0.00, 0.00, -61127.10, -0.03, -0.03, 0.00
209, 16170.55, -9706.40, -39261.98, -41869.31, 0.00, 0.00, 0.00, -61238.08, -0.03, -0.03, 0.00
210, 16182.91, -9698.78, -39273.00, -41862.07, 0.00, 0.00, 0.00, -61222.52, 0.00, -0.03, -0.03
211, 16192.45, -9695.94, -39260.14, -41853.82, 0.00, 0.00, 0.00, -61108.71, 0.00, -0.03, -0.03
212, 16187.02, -9702.38, -39244.10, -41867.50, 0.00, 0.00, 0.00, -61110.07, 0.00, 0.00, -0.03
213, 16185.19, -9702.00, -39248.48, -41880.44, 0.00, 0.00, 0.00, -61223.35, -0.03, 0.00, -0.03
214, 16180.00, -9704.43, -39265.73, -41880.17, 0.00, 0.00, 0.00, -61241.77, -0.03, 0.00, 0.00
215, 16185.77, -9700.14, -39258.76, -41870.16, 0.00, 0.00, 0.00, -61129.52, -0.03, 0.00, 0.00
216, 16202.96, -9687.29, -39231.07, -41863.39, 0.00, 0.00, 0.00, -61087.56, -0.03, -0.03, 0.00
217, 16189.12, -9692.25, -39240.57, -41880.55, 0.00, 0.00, 0.00, -61199.68, -0.03, -0.03, -0.03
218, 16188.29, -9692.19, -39257.75, -41871.88, 0.00, 0.00, 0.00, -61243.44, -0.03, -0.03, -0.03
219, 16193.35, -9689.64, -39254.07, -41849.32, 0.00, 0.00, 0.00, -61134.99, -0.03, -0.03, 0.00
220, 16199.29, -9686.58, -39236.63, -41846.84, 0.00, 0.00, 0.00, -61079.09, -0.03, 0.00, -0.03
221, 16196.25, -9692.92, -39237.01, -41863.12, 0.00, 0.00, 0.00, -61175.00, -0.03, -0.03, -0.03
222, 16194.64, -9692.30, -39258.63, -41869.31, 0.00, 0.00, 0.00, -61249.19, 0.00, -0.03, 0.00
223, 16200.50, -9683.31, -39265.02, -41860.43, 0.00, 0.00, 0.00, -61168.45, -0.03, -0.03, -0.03
224, 16203.11, -9679.80, -39239.76, -41851.74, 0.00, 0.00, 0.00, -61079.67, -0.03, -0.03, 0.00
225, 16200.52, -9683.42, -39232.36, -41862.38, 0.00, 0.00, 0.00, -61151.93, -0.03, -0.03, 0.00
226, 16200.12, -9683.31, -39248.34, -41867.10, 0.00, 0.00, 0.00, -61243.46, -0.03, -0.03, 0.00
227, 16206.56, -9676.09, -39249.13, -41846.02, 0.00, 0.00, 0.00, -61175.70, -0.03, 0.00, -0.03
228, 16207.34, -9681.50, -39232.99, -41833.90, 0.00, 0.00, 0.00, -61070.64, -0.03, -0.03, -0.03
229, 16203.94, -9683.94, -39217.72, -41841.26, 0.00, 0.00, 0.00, -61114.56, -0.03, -0.03, -0.03
230, 16200.28, -9683.13, -39239.04, -41856.14, 0.00, 0.00, 0.00, -61226.03, -0.03, 0.00, -0.03
231, 16197.15, -9684.59, -39258.36, -41848.48, 0.00, 0.00, 0.00, -61197.80, 0.00, -0.03, 0.00
232, 16200.07, -9687.54, -39244.63, -41832.65, 0.00, 0.00, 0.00, -61081.06, 0.00, -0.03, -0.03
233, 16204.86, -9684.29, -39226.80, -41831.87, 0.00, 0.00, 0.00, -61094.51, 0.00, -0.03, -0.03
234, 16197.55, -9684.25, -39239.56, -41846.96, 0.00, 0.00, 0.00, -61210.68, -0.03, -0.03, 0.00
235, 16196.92, -9683.25, -39255.85, -41849.10, 0.00, 0.00, 0.00, -61212.66, -0.03, -0.03, -0.03
236, 16210.22, -9678.77, -39238.04, -41832.50, 0.00, 0.00, 0.00, -61093.73, -0.03, -0.03, -0.03
237, 16205.06, -9684.12, -39220.70, -41838.29, 0.00, 0.00, 0.00, -61082.89, -0.03, -0.03, 0.00
238, 16198.40, -9686.71, -39239.02, -41860.48, 0.00, 0.00, 0.00, -61207.95, 0.00, 0.00, 0.00
239, 16195.98, -9686.40, -39260.26, -41862.16, 0.00, 0.00, 0.00, -61237.99, -0.03, 0.00, -0.03
240, 16201.68, -9684.81, -39252.01, -41846.75, 0.00, 0.00, 0.00, -61132.02, -0.03, 0.00, 0.00
241, 16198.51, -9688.41, -39225.72, -41844.88, 0.00, 0.00, 0.00, -61087.29, 0.00, 0.00, -0.03
242, 16193.41, -9689.39, -39220.40, -41856.03, 0.00, 0.00, 0.00, -61186.42, -0.03, 0.00, 0.00
243, 16197.55, -9685.14, -39244.19, -41861.64, 0.00, 0.00, 0.00, -61246.48, -0.03, 0.00, 0.00
244, 16199.40, -9687.04, -39248.90, -41850.82, 0.00, 0.00, 0.00, -61156.07, 0.00, -0.03, -0.03
245, 16191.67, -9697.66, -39225.79, -41844.63, 0.00, 0.00, 0.00, -61085.04, 0.00, -0.03, -0.03
246, 16191.49, -9699.41, -39223.82, -41854.89, 0.00, 0.00, 0.00, -61169.77, -0.03, -0.03, 0.00
247, 16188.34, -9700.14, -39257.62, -41868.14, 0.00, 0.00, 0.00, -61255.85, -0.03, -0.03, -0.03
248, 16192.43, -9694.53, -39265.96, -41853.71, 0.00, 0.00, 0.00, -61178.87, 0.00, -0.03, 0.00
249, 16194.46, -9693.48, -39236.18, -41835.58, 0.00, 0.00, 0.00, -61077.75, 0.00, -0.03, 0.00
250, 16196.16, -9691.02, -39219.24, -41842.44, 0.00, 0.00, 0.00, -61133.96, -0.03, -0.03, -0.03
251, 16200.57, -9684.16, -39242.15, -41858.91, 0.00, 0.00, 0.00, -61236.69, 0.00, -0.03, -0.03
252, 16202.87, -9680.25, -39254.49, -41846.51, 0.00, 0.00, 0.00, -61186.20, 0.00, -0.03, 0.00
253, 16201.95, -9683.65, -39233.64, -41829.21, 0.00, 0.00, 0.00, -61072.92, 0.00, -0.03, -0.03
254, 16200.61, -9687.33, -39215.31, -41833.16, 0.00, 0.00, 0.00, -61103.66, 0.00, 0.00, -0.03
255, 16197.15, -9688.56, -39234.82, -41845.01, 0.00, 0.00, 0.00, -61219.44, -0.03, -0.03, -0.03
0, 16197.59, -9683.58, -39257.82, -41840.96, 0.00, 0.00, 0.00, -61202.36, 0.00, -0.03, -0.03
1, 16205.33, -9683.47, -39244.43, -41831.96, 0.00, 0.00, 0.00, -61090.02, -0.03, 0.00, -0.03
2, 16198.00, -9693.17, -39228.72, -41845.04, 0.00, 0.00, 0.00, -61103.79, -0.03, -0.03, -0.03
3, 16196.65, -9692.16, -39242.00, -41865.13, 0.00, 0.00, 0.00, -61221.71, -0.03, -0.03, -0.03
4, 16198.67, -9688.61, -39260.91, -41866.65, 0.00, 0.00, 0.00, -61229.72, 0.00, -0.03, -0.03
5, 16197.75, -9689.17, -39246.02, -41852.81, 0.00, 0.00, 0.00, -61113.33, 0.00, 0.00, -0.03
6, 16193.15, -9692.52, -39223.00, -41854.15, 0.00, 0.00, 0.00, -61091.41, -0.03, -0.03, -0.03
7, 16194.15, -9694.87, -39230.26, -41871.43, 0.00, 0.00, 0.00, -61204.26, -0.03, -0.03, -0.03
8, 16198.04, -9688.79, -39253.73, -41873.49, 0.00, 0.00, 0.00, -61240.18, 0.00, 0.00, -0.03
9, 16201.21, -9686.15, -39249.21, -41852.34, 0.00, 0.00, 0.00, -61127.64, -0.03, -0.03, -0.03
10, 16198.69, -9692.03, -39222.21, -41837.14, 0.00, 0.00, 0.00, -61067.55, -0.03, 0.00, -0.03
11, 16189.61, -9696.61, -39225.77, -41851.76, 0.00, 0.00, 0.00, -61172.30, -0.03, -0.03, 0.00
12, 16197.95, -9688.65, -39245.55, -41850.40, 0.00, 0.00, 0.00, -61231.55, -0.03, -0.03, 0.00
13, 16201.86, -9685.21, -39240.54, -41830.11, 0.00, 0.00, 0.00, -61134.37, -0.03, -0.03, 0.00
14, 16198.71, -9690.78, -39217.63, -41823.51, 0.00, 0.00, 0.00, -61056.54, -0.03, -0.03, 0.00
15, 16193.19, -9695.90, -39217.68, -41836.25, 0.00, 0.00, 0.00, -61145.03, 0.00, -0.03, -0.03
16, 16188.56, -9697.71, -39245.08, -41843.16, 0.00, 0.00, 0.00, -61237.43, -0.03, -0.03, 0.00
17, 16199.83, -9688.56, -39251.38, -41826.41, 0.00, 0.00, 0.00, -61161.19, -0.03, -0.03, 0.00
18, 16208.12, -9683.25, -39227.91, -41812.65, 0.00, 0.00, 0.00, -61057.97, 0.00, -0.03, -0.03
19, 16197.50, -9691.96, -39222.86, -41831.38, 0.00, 0.00, 0.00, -61121.36, -0.03, -0.03, 0.00
20, 16198.13, -9690.75, -39238.17, -41840.54, 0.00, 0.00, 0.00, -61221.56, -0.03, 0.00, 0.00
21, 16200.34, -9688.92, -39253.84, -41837.14, 0.00, 0.00, 0.00, -61182.49, -0.03, -0.03, 0.00
22, 16200.07, -9690.11, -39237.86, -41829.05, 0.00, 0.00, 0.00, -61072.47, -0.03, -0.03, -0.03
23, 16199.65, -9689.84, -39214.73, -41832.38, 0.00, 0.00, 0.00, -61098.98, 0.00, -0.03, -0.03
24, 16188.16, -9699.11, -39229.55, -41851.05, 0.00, 0.00, 0.00, -61216.71, 0.00, 0.00, -0.03
25, 16198.89, -9691.40, -39243.80, -41845.08, 0.00, 0.00, 0.00, -61201.69, 0.00, -0.03, -0.03
26, 16203.92, -9691.94, -39234.62, -41834.64, 0.00, 0.00, 0.00, -61087.09, 0.00, -0.03, 0.00
27, 16192.70, -9703.16, -39225.57, -41848.97, 0.00, 0.00, 0.00, -61095.94, -0.03, 0.00, 0.00
28, 16189.70, -9701.19, -39232.07, -41856.30, 0.00, 0.00, 0.00, -61212.30, -0.03, 0.00, -0.03
29, 16194.87, -9695.65, -39248.86, -41849.48, 0.00, 0.00, 0.00, -61223.71, 0.00, 0.00, -0.03
30, 16199.83, -9695.92, -39241.79, -41833.86, 0.00, 0.00, 0.00, -61109.02, -0.03, -0.03, 0.00
31, 16200.19, -9695.27, -39212.22, -41826.15, 0.00, 0.00, 0.00, -61069.77, 0.00, 0.00, -0.03
32, 16198.44, -9694.42, -39216.27, -41839.45, 0.00, 0.00, 0.00, -61178.42, -0.03, 0.00, -0.03
33, 16194.20, -9693.64, -39238.82, -41839.27, 0.00, 0.00, 0.00, -61223.04, -0.03, 0.00, -0.03
34, 16192.94, -9694.51, -39237.97, -41827.31, 0.00, 0.00, 0.00, -61120.87, -0.03, -0.03, 0.00
35, 16202.78, -9690.82, -39215.13, -41823.62, 0.00, 0.00, 0.00, -61061.10, 0.00, 0.00, 0.00
36, 16198.67, -9691.27, -39212.60, -41834.69, 0.00, 0.00, 0.00, -61151.64, 0.00, -0.03, -0.03
37, 16203.43, -9684.05, -39228.61, -41830.48, 0.00, 0.00, 0.00, -61214.32, -0.03, -0.03, -0.03
38, 16211.12, -9676.87, -39229.37, -41813.27, 0.00, 0.00, 0.00, -61124.69, -0.03, -0.03, -0.03
39, 16210.51, -9678.55, -39210.17, -41809.74, 0.00, 0.00, 0.00, -61046.28, 0.00, -0.03, -0.03
40, 16206.24, -9678.91, -39210.75, -41827.29, 0.00, 0.00, 0.00, -61130.97, -0.03, -0.03, -0.03
41, 16198.55, -9683.49, -39237.35, -41840.07, 0.00, 0.00, 0.00, -61227.71, -0.03, -0.03, -0.03
42, 16200.16, -9686.67, -39241.30, -41823.15, 0.00, 0.00, 0.00, -61157.23, 0.00, 0.00, -0.03
43, 16206.94, -9684.38, -39214.91, -41802.75, 0.00, 0.00, 0.00, -61049.25, 0.00, 0.00, 0.00
44, 16205.77, -9686.17, -39212.65, -41816.92, 0.00, 0.00, 0.00, -61107.14, 0.00, -0.03, 0.00
45, 16202.06, -9685.14, -39239.52, -41832.27, 0.00, 0.00, 0.00, -61222.10, 0.00, -0.03, 0.00
46, 16202.29, -9683.09, -39257.20, -41821.41, 0.00, 0.00, 0.00, -61194.34, 0.00, -0.03, 0.00
47, 16203.94, -9685.55, -39241.05, -41813.32, 0.00, 0.00, 0.00, -61082.22, -0.03, -0.03, 0.00
48, 16205.19, -9689.62, -39230.98, -41835.33, 0.00, 0.00, 0.00, -61110.85, -0.03, -0.03, 0.00
49, 16202.38, -9688.47, -39247.23, -41860.30, 0.00, 0.00, 0.00, -61232.80, 0.00, -0.03, -0.03
50, 16206.98, -9683.09, -39259.41, -41853.19, 0.00, 0.00, 0.00, -61222.84, -0.03, 0.00, -0.03
51, 16208.21, -9685.75, -39241.93, -41835.33, 0.00, 0.00, 0.00, -61101.29, 0.00, -0.03, -0.03
52, 16203.61, -9693.93, -39223.11, -41844.50, 0.00, 0.00, 0.00, -61096.41, 0.00, -0.03, -0.03
53, 16198.29, -9695.54, -39232.34, -41861.57, 0.00, 0.00, 0.00, -61212.80, 0.00, -0.03, -0.03
54, 16199.45, -9693.44, -39253.82, -41857.20, 0.00, 0.00, 0.00, -61239.22, -0.03, -0.03, 0.00
55, 16207.03, -9689.68, -39236.34, -41828.52, 0.00, 0.00, 0.00, -61114.81, 0.00, 0.00, -0.03
56, 16206.98, -9688.23, -39206.46, -41818.64, 0.00, 0.00, 0.00, -61063.33, -0.03, -0.03, 0.00
57, 16204.81, -9688.54, -39208.00, -41831.09, 0.00, 0.00, 0.00, -61164.07, -0.03, -0.03, 0.00
58, 16205.80, -9686.89, -39229.66, -41828.45, 0.00, 0.00, 0.00, -61214.90, -0.03, -0.03, -0.03
59, 16205.60, -9686.82, -39228.52, -41808.07, 0.00, 0.00, 0.00, -61113.91, 0.00, 0.00, -0.03
60, 16210.58, -9690.00, -39209.34, -41803.37, 0.00, 0.00, 0.00, -61048.33, 0.00, 0.00, -0.03
61, 16209.55, -9687.22, -39209.41, -41816.04, 0.00, 0.00, 0.00, -61140.54, 0.00, -0.03, -0.03
62, 16198.82, -9688.12, -39230.15, -41818.64, 0.00, 0.00, 0.00, -61214.79, -0.03, -0.03, -0.03
63, 16203.63, -9684.70, -39232.05, -41803.08, 0.00, 0.00, 0.00, -61129.00, 0.00, 0.00, -0.03
64, 16210.69, -9680.88, -39206.90, -41792.51, 0.00, 0.00, 0.00, -61035.39, 0.00, 0.00, 0.00
65, 16204.81, -9682.80, -39201.47, -41810.75, 0.00, 0.00, 0.00, -61105.96, -0.03, 0.00, -0.03
66, 16201.50, -9684.45, -39229.01, -41834.57, 0.00, 0.00, 0.00, -61209.40, -0.03, -0.03, 0.00
67, 16208.57, -9681.81, -39238.91, -41831.54, 0.00, 0.00, 0.00, -61154.44, 0.00, -0.03, -0.03
68, 16209.57, -9683.09, -39223.91, -41825.50, 0.00, 0.00, 0.00, -61050.64, -0.03, -0.03, 0.00
69, 16205.77, -9681.97, -39214.39, -41836.81, 0.00, 0.00, 0.00, -61097.95, -0.03, -0.03, -0.03
70, 16206.33, -9676.61, -39227.71, -41846.60, 0.00, 0.00, 0.00, -61207.93, -0.03, 0.00, -0.03
71, 16207.03, -9676.76, -39251.09, -41846.35, 0.00, 0.00, 0.00, -61192.12, 0.00, 0.00, 0.00
72, 16207.14, -9678.66, -39240.14, -41837.64, 0.00, 0.00, 0.00, -61079.89, -0.03, 0.00, 0.00
73, 16197.91, -9689.95, -39222.75, -41847.43, 0.00, 0.00, 0.00, -61096.64, -0.03, -0.03, -0.03
74, 16194.38, -9696.39, -39234.93, -41864.37, 0.00, 0.00, 0.00, -61216.44, -0.03, -0.03, 0.00
75, 16193.70, -9696.21, -39249.59, -41855.70, 0.00, 0.00, 0.00, -61220.69, -0.03, 0.00, 0.00
76, 16195.81, -9697.44, -39235.34, -41835.25, 0.00, 0.00, 0.00, -61102.00, -0.03, 0.00, -0.03
77, 16197.42, -9696.86, -39210.79, -41831.87, 0.00, 0.00, 0.00, -61079.54, -0.03, -0.03, -0.03
78, 16194.80, -9695.16, -39213.88, -41842.22, 0.00, 0.00, 0.00, -61188.41, -0.03, -0.03, -0.03
79, 16200.05, -9684.81, -39227.51, -41835.45, 0.00, 0.00, 0.00, -61211.39, 0.00, 0.00, 0.00
80, 16213.75, -9674.24, -39220.22, -41818.19, 0.00, 0.00, 0.00, -61102.31, -0.03, -0.03, -0.03
81, 16215.30, -9675.15, -39197.96, -41817.56, 0.00, 0.00, 0.00, -61054.97, -0.03, 0.00, -0.03
82, 16209.35, -9676.34, -39202.19, -41836.00, 0.00, 0.00, 0.00, -61161.64, 0.00, -0.03, -0.03
83, 16215.41, -9670.08, -39224.83, -41840.59, 0.00, 0.00, 0.00, -61220.02, -0.03, -0.03, 0.00
84, 16215.97, -9670.64, -39227.04, -41826.48, 0.00, 0.00, 0.00, -61126.03, -0.03, -0.03, -0.03
85, 16211.00, -9680.65, -39208.13, -41824.14, 0.00, 0.00, 0.00, -61052.60, 0.00, -0.03, 0.00
86, 16211.70, -9676.32, -39201.89, -41835.11, 0.00, 0.00, 0.00, -61133.96, -0.03, 0.00, -0.03
87, 16212.99, -9674.46, -39226.30, -41845.97, 0.00, 0.00, 0.00, -61218.57, -0.03, -0.03, -0.03
88, 16220.06, -9668.78, -39230.86, -41831.54, 0.00, 0.00, 0.00, -61144.29, -0.03, 0.00, -0.03
89, 16225.11, -9667.55, -39203.59, -41815.91, 0.00, 0.00, 0.00, -61041.98, -0.03, -0.03, -0.03
90, 16210.89, -9680.25, -39200.04, -41830.48, 0.00, 0.00, 0.00, -61110.02, -0.03, -0.03, 0.00
91, 16203.47, -9689.12, -39225.10, -41845.66, 0.00, 0.00, 0.00, -61214.56, 0.00, -0.03, -0.03
92, 16211.41, -9682.02, -39233.08, -41836.05, 0.00, 0.00, 0.00, -61169.05, -0.03, -0.03, -0.03
93, 16211.14, -9680.47, -39214.30, -41825.12, 0.00, 0.00, 0.00, -61064.65, -0.03, -0.03, -0.03
94, 16194.38, -9696.05, -39208.69, -41840.96, 0.00, 0.00, 0.00, -61109.45, -0.03, -0.03, -0.03
95, 16191.69, -9699.83, -39223.00, -41853.46, 0.00, 0.00, 0.00, -61224.15, -0.03, -0.03, -0.03
96, 16200.45, -9692.36, -39239.61, -41850.24, 0.00, 0.00, 0.00, -61209.65, 0.00, -0.03, -0.03
97, 16203.38, -9693.48, -39227.82, -41838.87, 0.00, 0.00, 0.00, -61097.06, 0.00, 0.00, -0.03
98, 16193.79, -9702.74, -39211.91, -41847.74, 0.00, 0.00, 0.00, -61104.70, -0.03, -0.03, -0.03
99, 16190.37, -9703.61, -39224.72, -41866.36, 0.00, 0.00, 0.00, -61222.90, -0.03, 0.00, -0.03
100, 16195.04, -9694.29, -39238.64, -41855.14, 0.00, 0.00, 0.00, -61228.51, 0.00, -0.03, -0.03
101, 16199.49, -9689.68, -39225.70, -41838.26, 0.00, 0.00, 0.00, -61112.42, 0.00, -0.03, 0.00
102, 16205.82, -9689.75, -39207.77, -41841.37, 0.00, 0.00, 0.00, -61088.72, -0.03, 0.00, -0.03
103, 16195.40, -9693.97, -39221.70, -41863.14, 0.00, 0.00, 0.00, -61206.11, -0.03, -0.03, -0.03
104, 16205.30, -9682.04, -39233.10, -41859.72, 0.00, 0.00, 0.00, -61236.74, -0.03, -0.03, -0.03
105, 16213.17, -9678.06, -39222.88, -41839.74, 0.00, 0.00, 0.00, -61122.74, -0.03, -0.03, -0.03
106, 16215.39, -9675.71, -39194.54, -41829.39, 0.00, 0.00, 0.00, -61061.45, -0.03, -0.03, -0.03
107, 16216.57, -9671.80, -39194.88, -41841.19, 0.00, 0.00, 0.00, -61158.71, -0.03, -0.03, -0.03
108, 16223.54, -9662.84, -39219.75, -41845.17, 0.00, 0.00, 0.00, -61225.81, -0.03, 0.00, -0.03
109, 16227.05, -9661.92, -39224.16, -41830.35, 0.00, 0.00, 0.00, -61135.13, -0.03, 0.00, -0.03
110, 16220.24, -9666.10, -39198.90, -41819.02, 0.00, 0.00, 0.00, -61050.75, -0.03, -0.03, -0.03
111, 16213.42, -9670.88, -39196.09, -41834.11, 0.00, 0.00, 0.00, -61125.34, 0.00, -0.03, 0.00
112, 16211.14, -9670.77, -39221.48, -41843.61, 0.00, 0.00, 0.00, -61216.84, 0.00, -0.03, -0.03
113, 16218.49, -9659.51, -39227.94, -41827.09, 0.00, 0.00, 0.00, -61151.71, -0.03, 0.00, 0.00
114, 16223.41, -9658.17, -39205.36, -41812.20, 0.00, 0.00, 0.00, -61053.50, 0.00, 0.00, 0.00
115, 16222.65, -9664.02, -39196.55, -41822.59, 0.00, 0.00, 0.00, -61111.75, 0.00, 0.00, -0.03
116, 16219.01, -9666.55, -39216.52, -41835.36, 0.00, 0.00, 0.00, -61217.58, -0.03, -0.03, 0.00
117, 16218.83, -9665.68, -39230.17, -41825.39, 0.00, 0.00, 0.00, -61178.96, -0.03, -0.03, -0.03
118, 16214.71, -9673.30, -39218.75, -41818.59, 0.00, 0.00, 0.00, -61073.59, -0.03, -0.03, -0.03
119, 16202.80, -9684.16, -39205.90, -41827.55, 0.00, 0.00, 0.00, -61107.01, -0.03, -0.03, -0.03
120, 16196.03, -9686.37, -39226.19, -41847.16, 0.00, 0.00, 0.00, -61232.16, -0.03, -0.03, -0.03
121, 16206.36, -9678.89, -39246.22, -41842.26, 0.00, 0.00, 0.00, -61226.41, -0.03, -0.03, -0.03
122, 16213.20, -9672.87, -39231.00, -41824.34, 0.00, 0.00, 0.00, -61108.71, 0.00, -0.03, -0.03
123, 16212.23, -9679.60, -39210.52, -41828.76, 0.00, 0.00, 0.00, -61101.75, -0.03, -0.03, -0.03
124, 16203.58, -9684.67, -39225.21, -41847.02, 0.00, 0.00, 0.00, -61224.82, -0.03, 0.00, -0.03
125, 16202.13, -9681.86, -39251.50, -41849.82, 0.00, 0.00, 0.00, -61247.51, -0.03, 0.00, -0.03
126, 16204.17, -9678.68, -39248.63, -41835.96, 0.00, 0.00, 0.00, -61133.85, -0.03, -0.03, 0.00
127, 16199.78, -9681.88, -39229.68, -41836.27, 0.00, 0.00, 0.00, -61096.97, -0.03, -0.03, -0.03
128, 16198.35, -9681.12, -39230.75, -41847.88, 0.00, 0.00, 0.00, -61203.59, -0.03, 0.00, -0.03
129, 16205.51, -9676.52, -39247.92, -41850.38, 0.00, 0.00, 0.00, -61249.79, 0.00, -0.03, -0.03
130, 16217.64, -9671.85, -39248.19, -41845.21, 0.00, 0.00, 0.00, -61149.79, -0.03, 0.00, 0.00
131, 16221.91, -9669.05, -39224.05, -41841.59, 0.00, 0.00, 0.00, -61086.80, -0.03, 0.00, -0.03
132, 16216.26, -9675.04, -39212.67, -41848.14, 0.00, 0.00, 0.00, -61168.25, -0.03, -0.03, -0.03
133, 16212.41, -9673.92, -39225.14, -41844.90, 0.00, 0.00, 0.00, -61230.93, -0.03, -0.03, 0.00
134, 16223.32, -9666.06, -39227.73, -41825.25, 0.00, 0.00, 0.00, -61144.40, -0.03, -0.03, -0.03
135, 16231.21, -9660.25, -39205.00, -41812.89, 0.00, 0.00, 0.00, -61049.59, -0.03, 0.00, -0.03
136, 16231.63, -9654.86, -39194.07, -41819.75, 0.00, 0.00, 0.00, -61115.57, 0.00, 0.00, 0.00
137, 16220.35, -9660.09, -39216.00, -41827.96, 0.00, 0.00, 0.00, -61213.65, 0.00, -0.03, -0.03
138, 16223.97, -9658.37, -39225.52, -41816.45, 0.00, 0.00, 0.00, -61153.54, -0.03, 0.00, -0.03
139, 16227.97, -9657.45, -39211.22, -41811.39, 0.00, 0.00, 0.00, -61052.69, -0.03, -0.03, -0.03
140, 16222.72, -9661.21, -39198.75, -41819.40, 0.00, 0.00, 0.00, -61097.11, 0.00, 0.00, 0.00
141, 16224.26, -9664.83, -39211.11, -41825.12, 0.00, 0.00, 0.00, -61199.12, -0.03, -0.03, -0.03
142, 16219.68, -9670.12, -39230.60, -41817.83, 0.00, 0.00, 0.00, -61175.52, -0.03, -0.03, -0.03
143, 16223.83, -9664.76, -39209.61, -41801.20, 0.00, 0.00, 0.00, -61059.69, -0.03, -0.03, -0.03
144, 16224.75, -9663.51, -39189.00, -41805.56, 0.00, 0.00, 0.00, -61071.76, -0.03, 0.00, -0.03
145, 16223.70, -9665.03, -39198.19, -41816.13, 0.00, 0.00, 0.00, -61181.10, -0.03, -0.03, -0.03
146, 16222.07, -9662.14, -39213.65, -41810.43, 0.00, 0.00, 0.00, -61176.12, 0.00, -0.03, -0.03
147, 16219.79, -9663.53, -39213.16, -41805.56, 0.00, 0.00, 0.00, -61068.18, -0.03, -0.03, 0.00
148, 16217.71, -9664.31, -39200.60, -41812.42, 0.00, 0.00, 0.00, -61061.16, 0.00, -0.03, 0.00
149, 16220.08, -9668.18, -39217.41, -41831.20, 0.00, 0.00, 0.00, -61179.96, 0.00, 0.00, -0.03
150, 16214.11, -9672.34, -39242.38, -41832.99, 0.00, 0.00, 0.00, -61209.51, -0.03, 0.00, 0.00
151, 16214.27, -9670.91, -39235.25, -41813.77, 0.00, 0.00, 0.00, -61097.91, -0.03, 0.00, 0.00
152, 16220.01, -9673.30, -39215.78, -41814.39, 0.00, 0.00, 0.00, -61058.88, -0.03, -0.03, 0.00
153, 16214.38, -9674.88, -39219.18, -41831.71, 0.00, 0.00, 0.00, -61169.68, 0.00, 0.00, 0.00
154, 16211.18, -9673.77, -39240.36, -41837.77, 0.00, 0.00, 0.00, -61231.26, -0.03, -0.03, -0.03
155, 16213.35, -9676.07, -39239.74, -41828.85, 0.00, 0.00, 0.00, -61133.29, 0.00, -0.03, -0.03
156, 16211.63, -9676.43, -39211.75, -41822.82, 0.00, 0.00, 0.00, -61054.35, 0.00, -0.03, -0.03
157, 16202.89, -9678.35, -39206.16, -41839.27, 0.00, 0.00, 0.00, -61143.91, -0.03, 0.00, -0.03
158, 16206.87, -9675.24, -39224.43, -41846.84, 0.00, 0.00, 0.00, -61225.70, -0.03, 0.00, 0.00
159, 16211.43, -9671.44, -39227.87, -41832.90, 0.00, 0.00, 0.00, -61146.59, 0.00, -0.03, -0.03
160, 16220.03, -9668.31, -39203.86, -41821.59, 0.00, 0.00, 0.00, -61050.10, 0.00, 0.00, -0.03
161, 16217.71, -9669.86, -39191.26, -41825.68, 0.00, 0.00, 0.00, -61113.80, 0.00, 0.00, -0.03
162, 16212.68, -9670.30, -39208.45, -41830.26, 0.00, 0.00, 0.00, -61211.61, -0.03, -0.03, -0.03
163, 16213.44, -9667.98, -39219.33, -41817.23, 0.00, 0.00, 0.00, -61156.72, -0.03, -0.03, -0.03
164, 16221.80, -9664.89, -39196.98, -41800.40, 0.00, 0.00, 0.00, -61040.51, 0.00, 0.00, 0.00
165, 16222.74, -9663.42, -39181.02, -41804.06, 0.00, 0.00, 0.00, -61074.17, -0.03, -0.03, 0.00
166, 16222.81, -9659.33, -39199.13, -41811.64, 0.00, 0.00, 0.00, -61184.32, 0.00, 0.00, -0.03
167, 16224.26, -9655.35, -39218.75, -41803.55, 0.00, 0.00, 0.00, -61162.51, -0.03, 0.00, 0.00
168, 16224.75, -9656.31, -39202.45, -41785.89, 0.00, 0.00, 0.00, -61041.05, 0.00, -0.03, -0.03
169, 16221.96, -9660.07, -39181.40, -41789.31, 0.00, 0.00, 0.00, -61046.99, -0.03, 0.00, -0.03
170, 16224.44, -9659.22, -39193.80, -41807.46, 0.00, 0.00, 0.00, -61168.59, -0.03, 0.00, -0.03
171, 16220.91, -9657.70, -39217.63, -41811.11, 0.00, 0.00, 0.00, -61180.99, 0.00, -0.03, 0.00
172, 16227.32, -9652.98, -39205.43, -41793.20, 0.00, 0.00, 0.00, -61065.48, -0.03, -0.03, -0.03
173, 16224.91, -9659.02, -39187.32, -41798.90, 0.00, 0.00, 0.00, -61042.10, -0.03, -0.03, -0.03
174, 16213.98, -9664.69, -39201.09, -41820.02, 0.00, 0.00, 0.00, -61161.66, -0.03, -0.03, 0.00
175, 16210.60, -9665.07, -39230.48, -41827.20, 0.00, 0.00, 0.00, -61208.55, -0.03, -0.03, -0.03
176, 16206.71, -9670.71, -39230.13, -41819.44, 0.00, 0.00, 0.00, -61105.98, -0.03, -0.03, -0.03
177, 16209.66, -9671.02, -39200.73, -41815.46, 0.00, 0.00, 0.00, -61047.66, -0.03, -0.03, -0.03
178, 16207.45, -9673.03, -39201.14, -41831.31, 0.00, 0.00, 0.00, -61151.87, -0.03, 0.00, -0.03
179, 16211.12, -9671.91, -39221.75, -41833.79, 0.00, 0.00, 0.00, -61216.31, -0.03, -0.03, 0.00
180, 16218.58, -9664.58, -39217.79, -41813.43, 0.00, 0.00, 0.00, -61120.48, -0.03, -0.03, 0.00
181, 16221.80, -9661.03, -39190.47, -41803.28, 0.00, 0.00, 0.00, -61036.55, -0.03, -0.03, 0.00
182, 16217.24, -9664.54, -39185.22, -41818.35, 0.00, 0.00, 0.00, -61119.19, -0.03, -0.03, 0.00
183, 16221.44, -9659.33, -39196.91, -41819.75, 0.00, 0.00, 0.00, -61199.01, -0.03, -0.03, 0.00
184, 16225.87, -9658.01, -39202.39, -41806.16, 0.00, 0.00, 0.00, -61129.02, 0.00, -0.03, -0.03
185, 16227.05, -9659.28, -39183.41, -41796.24, 0.00, 0.00, 0.00, -61028.93, -0.03, 0.00, -0.03
186, 16222.87, -9662.14, -39176.77, -41807.73, 0.00, 0.00, 0.00, -61084.52, 0.00, -0.03, 0.00
187, 16226.23, -9657.12, -39196.13, -41817.56, 0.00, 0.00, 0.00, -61187.56, -0.03, -0.03, -0.03
188, 16221.13, -9658.23, -39211.08, -41810.03, 0.00, 0.00, 0.00, -61146.86, -0.03, -0.03, -0.03
189, 16220.12, -9658.90, -39192.04, -41792.08, 0.00, 0.00, 0.00, -61032.71, 0.00, 0.00, -0.03
190, 16227.32, -9661.85, -39175.81, -41797.11, 0.00, 0.00, 0.00, -61053.77, -0.03, -0.03, 0.00
191, 16225.89, -9655.48, -39189.94, -41810.64, 0.00, 0.00, 0.00, -61167.02, -0.03, -0.03, -0.03
192, 16226.76, -9651.46, -39209.18, -41806.54, 0.00, 0.00, 0.00, -61158.21, 0.00, -0.03, 0.00
193, 16228.21, -9652.87, -39198.36, -41795.57, 0.00, 0.00, 0.00, -61042.70, -0.03, -0.03, -0.03
194, 16224.86, -9656.74, -39178.89, -41802.19, 0.00, 0.00, 0.00, -61038.97, -0.03, -0.03, 0.00
195, 16214.87, -9660.45, -39191.26, -41816.09, 0.00, 0.00, 0.00, -61158.86, -0.03, 0.00, 0.00
196, 16210.74, -9664.09, -39213.36, -41812.11, 0.00, 0.00, 0.00, -61181.75, 0.00, -0.03, 0.00
197, 16218.74, -9663.24, -39203.35, -41793.60, 0.00, 0.00, 0.00, -61065.66, -0.03, -0.03, 0.00
198, 16219.19, -9664.33, -39182.52, -41794.77, 0.00, 0.00, 0.00, -61034.34, -0.03, -0.03, -0.03
199, 16212.81, -9670.24, -39193.13, -41816.09, 0.00, 0.00, 0.00, -61152.79, -0.03, -0.03, 0.00
200, 16206.78, -9670.82, -39219.04, -41821.61, 0.00, 0.00, 0.00, -61205.46, 0.00, -0.03, -0.03
201, 16210.22, -9666.48, -39214.03, -41806.41, 0.00, 0.00, 0.00, -61104.08, -0.03, -0.03, 0.00
202, 16213.80, -9672.05, -39190.59, -41808.96, 0.00, 0.00, 0.00, -61047.21, -0.03, -0.03, 0.00
203, 16210.54, -9674.93, -39188.69, -41822.55, 0.00, 0.00, 0.00, -61143.95, -0.03, -0.03, -0.03
204, 16214.16, -9666.55, -39207.44, -41822.64, 0.00, 0.00, 0.00, -61211.95, -0.03, 0.00, -0.03
205, 16221.11, -9662.41, -39209.90, -41802.61, 0.00, 0.00, 0.00, -61125.13, -0.03, -0.03, 0.00
206, 16221.73, -9661.85, -39188.57, -41793.38, 0.00, 0.00, 0.00, -61039.95, 0.00, 0.00, 0.00
207, 16219.86, -9660.67, -39180.33, -41802.39, 0.00, 0.00, 0.00, -61108.82, -0.03, 0.00, -0.03
208, 16230.36, -9651.57, -39199.71, -41804.55, 0.00, 0.00, 0.00, -61197.84, -0.03, 0.00, -0.03
209, 16232.91, -9645.60, -39212.69, -41794.45, 0.00, 0.00, 0.00, -61141.25, 0.00, -0.03, -0.03
210, 16232.37, -9651.28, -39197.85, -41790.41, 0.00, 0.00, 0.00, -61042.43, -0.03, 0.00, -0.03
211, 16234.47, -9652.27, -39181.40, -41793.80, 0.00, 0.00, 0.00, -61084.01, -0.03, -0.03, -0.03
212, 16235.35, -9646.77, -39193.69, -41798.18, 0.00, 0.00, 0.00, -61185.60, -0.03, 0.00, -0.03
213, 16238.34, -9642.97, -39207.95, -41792.02, 0.00, 0.00, 0.00, -61150.62, -0.03, -0.03, -0.03
214, 16243.59, -9641.33, -39190.09, -41780.13, 0.00, 0.00, 0.00, -61036.31, -0.03, -0.03, 0.00
215, 16237.16, -9646.03, -39173.33, -41787.55, 0.00, 0.00, 0.00, -61055.78, -0.03, 0.00, -0.03
216, 16235.28, -9642.65, -39186.83, -41802.81, 0.00, 0.00, 0.00, -61170.44, 0.00, -0.03, -0.03
217, 16235.37, -9638.94, -39206.46, -41802.32, 0.00, 0.00, 0.00, -61168.36, -0.03, -0.03, 0.00
218, 16239.95, -9635.34, -39193.52, -41787.93, 0.00, 0.00, 0.00, -61051.60, -0.03, -0.03, -0.03
219, 16242.07, -9637.76, -39173.62, -41788.29, 0.00, 0.00, 0.00, -61040.22, 0.00, 0.00, -0.03
220, 16229.96, -9645.83, -39187.37, -41806.95, 0.00, 0.00, 0.00, -61162.04, -0.03, -0.03, -0.03
221, 16224.39, -9651.21, -39214.14, -41814.66, 0.00, 0.00, 0.00, -61196.77, -0.03, -0.03, 0.00
222, 16225.96, -9653.07, -39211.64, -41806.61, 0.00, 0.00, 0.00, -61095.86, 0.00, 0.00, -0.03
223, 16215.99, -9660.45, -39191.28, -41808.98, 0.00, 0.00, 0.00, -61057.86, 0.00, -0.03, -0.03
224, 16207.16, -9662.50, -39199.39, -41824.94, 0.00, 0.00, 0.00, -61169.01, 0.00, -0.03, -0.03
225, 16218.49, -9656.13, -39226.50, -41828.54, 0.00, 0.00, 0.00, -61230.07, -0.03, -0.03, -0.03
226, 16221.46, -9658.46, -39228.96, -41817.50, 0.00, 0.00, 0.00, -61133.72, 0.00, 0.00, -0.03
227, 16212.12, -9671.02, -39213.43, -41820.67, 0.00, 0.00, 0.00, -61071.31, 0.00, 0.00, -0.03
228, 16214.74, -9661.65, -39203.98, -41824.89, 0.00, 0.00, 0.00, -61155.18, -0.03, -0.03, 0.00
229, 16221.29, -9653.43, -39219.29, -41824.34, 0.00, 0.00, 0.00, -61229.96, 0.00, -0.03, -0.03
230, 16228.68, -9648.22, -39217.52, -41800.00, 0.00, 0.00, 0.00, -61141.54, 0.00, -0.03, -0.03
231, 16227.59, -9650.01, -39193.04, -41789.65, 0.00, 0.00, 0.00, -61043.17, -0.03, -0.03, -0.03
232, 16227.05, -9649.96, -39179.68, -41800.49, 0.00, 0.00, 0.00, -61103.99, 0.00, 0.00, 0.00
233, 16236.89, -9640.02, -39193.96, -41805.96, 0.00, 0.00, 0.00, -61194.54, -0.03, -0.03, -0.03
234, 16245.16, -9632.80, -39201.88, -41794.45, 0.00, 0.00, 0.00, -61133.58, 0.00, -0.03, 0.00
235, 16250.66, -9631.17, -39180.28, -41782.92, 0.00, 0.00, 0.00, -61019.28, -0.03, 0.00, 0.00
236, 16246.88, -9632.35, -39166.20, -41791.97, 0.00, 0.00, 0.00, -61059.15, -0.03, -0.03, -0.03
237, 16247.21, -9629.20, -39176.37, -41794.90, 0.00, 0.00, 0.00, -61167.60, 0.00, -0.03, -0.03
238, 16248.22, -9624.19, -39184.71, -41778.09, 0.00, 0.00, 0.00, -61132.55, -0.03, -0.03, -0.03
239, 16251.04, -9623.07, -39170.25, -41763.50, 0.00, 0.00, 0.00, -61016.66, -0.03, 0.00, -0.03
240, 16247.39, -9632.17, -39160.25, -41773.64, 0.00, 0.00, 0.00, -61033.67, 0.00, 0.00, -0.03
241, 16235.79, -9640.69, -39177.60, -41793.89, 0.00, 0.00, 0.00, -61155.60, -0.03, -0.03, -0.03
242, 16240.64, -9635.12, -39193.83, -41790.59, 0.00, 0.00, 0.00, -61157.34, -0.03, 0.00, 0.00
243, 16247.95, -9631.39, -39185.85, -41779.77, 0.00, 0.00, 0.00, -61050.79, 0.00, 0.00, 0.00
244, 16235.95, -9640.17, -39173.91, -41795.13, 0.00, 0.00, 0.00, -61044.73, -0.03, 0.00, -0.03
245, 16234.43, -9642.90, -39185.09, -41810.55, 0.00, 0.00, 0.00, -61165.30, -0.03, 0.00, 0.00
246, 16233.13, -9640.15, -39204.67, -41806.19, 0.00, 0.00, 0.00, -61194.87, -0.03, 0.00, 0.00
247, 16231.75, -9643.15, -39203.08, -41797.49, 0.00, 0.00, 0.00, -61087.09, 0.00, 0.00, -0.03
248, 16228.06, -9650.12, -39189.34, -41802.21, 0.00, 0.00, 0.00, -61047.55, -0.03, -0.03, -0.03
249, 16226.70, -9653.09, -39194.61, -41818.79, 0.00, 0.00, 0.00, -61155.11, -0.03, -0.03, 0.00
250, 16227.12, -9648.17, -39216.40, -41824.14, 0.00, 0.00, 0.00, -61217.63, -0.03, 0.00, -0.03
251, 16227.01, -9651.57, -39222.37, -41817.95, 0.00, 0.00, 0.00, -61130.81, 0.00, 0.00, -0.03
252, 16228.42, -9653.38, -39201.00, -41813.36, 0.00, 0.00, 0.00, -61056.00, 0.00, 0.00, -0.03
253, 16225.96, -9651.84, -39197.43, -41825.23, 0.00, 0.00, 0.00, -61137.11, -0.03, 0.00, -0.03
254, 16223.95, -9648.76, -39217.05, -41829.48, 0.00, 0.00, 0.00, -61214.96, -0.03, -0.03, 0.00
255, 16227.05, -9643.77, -39226.39, -41816.63, 0.00, 0.00, 0.00, -61142.10, -0.03, -0.03, -0.03
0, 16229.20, -9645.78, -39207.11, -41809.32, 0.00, 0.00, 0.00, -61049.90, 0.00, -0.03, -0.03
1, 16235.10, -9632.73, -39182.07, -41805.72, 0.00, 0.00, 0.00, -61094.89, -0.03, -0.03, 0.00
2, 16233.11, -9630.67, -39197.96, -41808.40, 0.00, 0.00, 0.00, -61192.23, -0.03, 0.00, -0.03
3, 16242.25, -9628.37, -39203.82, -41790.36, 0.00, 0.00, 0.00, -61135.02, -0.03, -0.03, 0.00
4, 16247.64, -9628.59, -39183.86, -41772.70, 0.00, 0.00, 0.00, -61021.11, 0.00, -0.03, -0.03
5, 16246.81, -9627.97, -39166.67, -41774.63, 0.00, 0.00, 0.00, -61049.34, -0.03, -0.03, -0.03
6, 16242.79, -9629.96, -39183.99, -41782.81, 0.00, 0.00, 0.00, -61160.54, -0.03, -0.03, -0.03
7, 16244.29, -9627.16, -39201.47, -41773.75, 0.00, 0.00, 0.00, -61143.95, -0.03, -0.03, -0.03
8, 16252.09, -9620.15, -39179.72, -41753.41, 0.00, 0.00, 0.00, -61019.01, -0.03, -0.03, -0.03
9, 16253.18, -9616.86, -39162.20, -41758.20, 0.00, 0.00, 0.00, -61019.75, -0.03, -0.03, 0.00
10, 16244.06, -9626.52, -39182.85, -41781.13, 0.00, 0.00, 0.00, -61143.80, 0.00, -0.03, 0.00
11, 16245.22, -9624.26, -39204.33, -41780.93, 0.00, 0.00, 0.00, -61158.64, -0.03, -0.03, 0.00
12, 16250.19, -9623.28, -39198.41, -41773.44, 0.00, 0.00, 0.00, -61047.60, 0.00, -0.03, -0.03
13, 16252.53, -9625.35, -39176.15, -41779.19, 0.00, 0.00, 0.00, -61024.33, 0.00, -0.03, -0.03
14, 16240.73, -9633.45, -39188.78, -41806.07, 0.00, 0.00, 0.00, -61147.66, 0.00, -0.03, 0.00
15, 16237.16, -9638.45, -39217.95, -41816.67, 0.00, 0.00, 0.00, -61198.76, 0.00, -0.03, -0.03
16, 16236.78, -9641.96, -39220.96, -41809.25, 0.00, 0.00, 0.00, -61104.75, -0.03, 0.00, 0.00
17, 16240.44, -9643.19, -39196.29, -41808.31, 0.00, 0.00, 0.00, -61049.92, -0.03, 0.00, 0.00
18, 16240.24, -9640.55, -39191.28, -41819.20, 0.00, 0.00, 0.00, -61141.34, -0.03, -0.03, -0.03
19, 16237.31, -9641.29, -39218.97, -41829.14, 0.00, 0.00, 0.00, -61210.94, 0.00, -0.03, 0.00
20, 16241.74, -9638.00, -39223.09, -41811.24, 0.00, 0.00, 0.00, -61121.38, -0.03, 0.00, -0.03
21, 16244.20, -9634.99, -39197.31, -41796.26, 0.00, 0.00, 0.00, -61033.78, -0.03, 0.00, -0.03
22, 16236.82, -9640.62, -39195.13, -41811.66, 0.00, 0.00, 0.00, -61114.94, 0.00, 0.00, 0.00
23, 16236.78, -9638.09, -39213.77, -41817.14, 0.00, 0.00, 0.00, -61202.52, 0.00, -0.03, 0.00
24, 16244.60, -9629.22, -39215.96, -41797.36, 0.00, 0.00, 0.00, -61131.26, -0.03, -0.03, -0.03
25, 16244.42, -9631.50, -39193.31, -41785.94, 0.00, 0.00, 0.00, -61028.80, -0.03, -0.03, 0.00
26, 16246.95, -9631.41, -39175.48, -41790.56, 0.00, 0.00, 0.00, -61073.93, 0.00, -0.03, -0.03
27, 16249.23, -9631.54, -39190.34, -41796.46, 0.00, 0.00, 0.00, -61176.81, -0.03, 0.00, 0.00
28, 16247.75, -9630.90, -39200.62, -41783.59, 0.00, 0.00, 0.00, -61135.62, 0.00, -0.03, -0.03
29, 16251.01, -9629.11, -39182.47, -41767.30, 0.00, 0.00, 0.00, -61019.37, -0.03, -0.03, -0.03
30, 16257.12, -9624.79, -39166.83, -41770.31, 0.00, 0.00, 0.00, -61041.90, -0.03, -0.03, -0.03
31, 16258.01, -9622.92, -39182.07, -41782.27, 0.00, 0.00, 0.00, -61159.87, -0.03, -0.03, -0.03
32, 16255.17, -9622.11, -39200.49, -41778.85, 0.00, 0.00, 0.00, -61151.58, -0.03, -0.03, 0.00
33, 16263.13, -9619.77, -39187.70, -41762.87, 0.00, 0.00, 0.00, -61033.92, -0.03, 0.00, 0.00
34, 16258.84, -9621.67, -39167.36, -41764.32, 0.00, 0.00, 0.00, -61023.88, 0.00, -0.03, 0.00
35, 16251.46, -9628.93, -39179.63, -41785.49, 0.00, 0.00, 0.00, -61147.08, -0.03, -0.03, -0.03
36, 16253.83, -9626.52, -39200.67, -41789.31, 0.00, 0.00, 0.00, -61173.19, 0.00, -0.03, -0.03
37, 16258.23, -9621.53, -39190.99, -41772.75, 0.00, 0.00, 0.00, -61060.34, -0.03, 0.00, -0.03
38, 16258.41, -9621.38, -39169.89, -41773.91, 0.00, 0.00, 0.00, -61030.12, 0.00, -0.03, -0.03
39, 16253.36, -9624.50, -39178.56, -41797.40, 0.00, 0.00, 0.00, -61144.69, -0.03, -0.03, -0.03
40, 16250.37, -9627.01, -39198.66, -41804.96, 0.00, 0.00, 0.00, -61194.87, -0.03, -0.03, 0.00
41, 16250.25, -9628.04, -39197.00, -41794.95, 0.00, 0.00, 0.00, -61093.46, 0.00, 0.00, 0.00
42, 16246.32, -9631.57, -39177.38, -41794.00, 0.00, 0.00, 0.00, -61032.49, -0.03, -0.03, 0.00
43, 16243.77, -9633.00, -39176.68, -41807.42, 0.00, 0.00, 0.00, -61128.69, -0.03, -0.03, 0.00
44, 16249.07, -9629.22, -39198.01, -41808.09, 0.00, 0.00, 0.00, -61203.14, 0.00, -0.03, -0.03
45, 16251.04, -9626.14, -39202.19, -41788.37, 0.00, 0.00, 0.00, -61118.07, -0.03, 0.00, 0.00
46, 16251.66, -9628.39, -39180.24, -41778.74, 0.00, 0.00, 0.00, -61027.39, -0.03, -0.03, -0.03
47, 16246.79, -9632.17, -39178.98, -41795.35, 0.00, 0.00, 0.00, -61104.23, -0.03, -0.03, 0.00
48, 16242.59, -9631.28, -39199.17, -41803.35, 0.00, 0.00, 0.00, -61198.54, 0.00, -0.03, 0.00
49, 16245.27, -9626.47, -39204.40, -41784.66, 0.00, 0.00, 0.00, -61136.04, -0.03, 0.00, 0.00
50, 16244.31, -9628.95, -39186.79, -41774.85, 0.00, 0.00, 0.00, -61028.62, -0.03, -0.03, 0.00
51, 16241.29, -9627.88, -39175.01, -41784.11, 0.00, 0.00, 0.00, -61070.42, -0.03, -0.03, 0.00
52, 16247.48, -9622.00, -39187.17, -41785.49, 0.00, 0.00, 0.00, -61174.40, 0.00, -0.03, -0.03
53, 16257.74, -9617.87, -39198.72, -41769.53, 0.00, 0.00, 0.00, -61141.99, 0.00, -0.03, -0.03
54, 16260.36, -9617.60, -39182.70, -41754.38, 0.00, 0.00, 0.00, -61025.11, 0.00, -0.03, -0.03
55, 16254.66, -9624.82, -39168.66, -41763.32, 0.00, 0.00, 0.00, -61039.19, -0.03, -0.03, -0.03
56, 16255.86, -9626.45, -39185.33, -41780.41, 0.00, 0.00, 0.00, -61162.13, 0.00, -0.03, -0.03
57, 16259.17, -9619.77, -39198.54, -41772.14, 0.00, 0.00, 0.00, -61157.93, -0.03, 0.00, 0.00
58, 16259.89, -9621.46, -39183.99, -41761.46, 0.00, 0.00, 0.00, -61039.17, 0.00, -0.03, -0.03
59, 16253.76, -9623.97, -39162.13, -41769.71, 0.00, 0.00, 0.00, -61019.07, -0.03, -0.03, 0.00
60, 16254.43, -9621.80, -39170.25, -41787.84, 0.00, 0.00, 0.00, -61134.16, -0.03, -0.03, -0.03
61, 16252.09, -9622.60, -39193.56, -41796.91, 0.00, 0.00, 0.00, -61170.40, -0.03, -0.03, 0.00
62, 16255.95, -9619.54, -39188.24, -41788.57, 0.00, 0.00, 0.00, -61065.59, -0.03, 0.00, -0.03
63, 16256.38, -9622.25, -39167.39, -41792.66, 0.00, 0.00, 0.00, -61023.30, -0.03, 0.00, -0.03
64, 16251.95, -9626.90, -39172.32, -41813.92, 0.00, 0.00, 0.00, -61132.60, -0.03, 0.00, 0.00
65, 16250.48, -9625.31, -39194.63, -41817.90, 0.00, 0.00, 0.00, -61190.11, -0.03, -0.03, -0.03
66, 16259.28, -9618.71, -39188.60, -41791.68, 0.00, 0.00, 0.00, -61086.40, -0.03, 0.00, -0.03
67, 16261.90, -9621.06, -39162.16, -41780.13, 0.00, 0.00, 0.00, -61007.90, 0.00, 0.00, -0.03
68, 16252.22, -9626.58, -39161.60, -41793.36, 0.00, 0.00, 0.00, -61093.89, 0.00, 0.00, 0.00
69, 16254.28, -9624.84, -39185.40, -41799.39, 0.00, 0.00, 0.00, -61175.16, 0.00, -0.03, -0.03
70, 16257.23, -9622.40, -39193.63, -41783.14, 0.00, 0.00, 0.00, -61099.83, -0.03, 0.00, -0.03
71, 16263.93, -9616.21, -39162.87, -41761.66, 0.00, 0.00, 0.00, -60994.24, -0.03, 0.00, 0.00
72, 16259.17, -9619.88, -39154.53, -41772.64, 0.00, 0.00, 0.00, -61054.91, 0.00, -0.03, -0.03
73, 16252.13, -9621.80, -39179.99, -41787.48, 0.00, 0.00, 0.00, -61160.03, 0.00, -0.03, -0.03
74, 16257.00, -9613.22, -39188.80, -41772.97, 0.00, 0.00, 0.00, -61111.70, -0.03, -0.03, -0.03
75, 16252.04, -9621.89, -39179.52, -41769.29, 0.00, 0.00, 0.00, -61010.85, -0.03, -0.03, 0.00
76, 16249.81, -9625.29, -39169.11, -41777.55, 0.00, 0.00, 0.00, -61048.11, 0.00, 0.00, -0.03
77, 16256.27, -9621.13, -39182.43, -41785.69, 0.00, 0.00, 0.00, -61157.25, -0.03, 0.00, 0.00
78, 16259.66, -9618.69, -39198.68, -41781.60, 0.00, 0.00, 0.00, -61136.15, -0.03, -0.03, -0.03
79, 16264.94, -9618.22, -39183.81, -41770.65, 0.00, 0.00, 0.00, -61019.32, -0.03, -0.03, -0.03
80, 16263.35, -9620.64, -39167.32, -41774.67, 0.00, 0.00, 0.00, -61027.30, -0.03, -0.03, -0.03
81, 16258.05, -9620.06, -39175.63, -41784.21, 0.00, 0.00, 0.00, -61138.99, 0.00, -0.03, -0.03
82, 16255.35, -9619.90, -39191.68, -41781.02, 0.00, 0.00, 0.00, -61143.35, -0.03, -0.03, -0.03
83, 16254.37, -9623.41, -39182.36, -41774.74, 0.00, 0.00, 0.00, -61031.41, 0.00, -0.03, 0.00
84, 16251.82, -9629.11, -39163.54, -41786.18, 0.00, 0.00, 0.00, -61012.48, -0.03, 0.00, 0.00
85, 16253.83, -9629.24, -39171.14, -41805.45, 0.00, 0.00, 0.00, -61133.11, -0.03, 0.00, -0.03
86, 16254.05, -9623.57, -39190.56, -41803.89, 0.00, 0.00, 0.00, -61173.79, -0.03, -0.03, -0.03
87, 16253.58, -9623.21, -39185.54, -41788.29, 0.00, 0.00, 0.00, -61063.58, -0.03, 0.00, -0.03
88, 16252.67, -9625.80, -39165.84, -41790.43, 0.00, 0.00, 0.00, -61011.34, -0.03, 0.00, -0.03
89, 16250.97, -9627.43, -39168.10, -41804.82, 0.00, 0.00, 0.00, -61114.00, -0.03, -0.03, -0.03
90, 16246.70, -9627.12, -39190.54, -41805.05, 0.00, 0.00, 0.00, -61183.56, -0.03, -0.03, -0.03
91, 16249.52, -9624.59, -39192.98, -41788.93, 0.00, 0.00, 0.00, -61092.72, 0.00, -0.03, -0.03
92, 16251.39, -9625.02, -39176.59, -41785.27, 0.00, 0.00, 0.00, -61020.57, -0.03, -0.03, 0.00
93, 16247.55, -9624.97, -39174.09, -41794.45, 0.00, 0.00, 0.00, -61102.94, 0.00, 0.00, 0.00
94, 16246.16, -9628.24, -39200.09, -41804.67, 0.00, 0.00, 0.00, -61193.80, 0.00, -0.03, 0.00
95, 16249.00, -9626.05, -39214.17, -41793.00, 0.00, 0.00, 0.00, -61129.71, -0.03, -0.03, -0.03
96, 16257.72, -9623.23, -39190.45, -41776.19, 0.00, 0.00, 0.00, -61026.79, -0.03, 0.00, -0.03
97, 16255.73, -9625.87, -39179.50, -41784.91, 0.00, 0.00, 0.00, -61082.38, 0.00, -0.03, -0.03
98, 16255.37, -9622.72, -39193.71, -41792.89, 0.00, 0.00, 0.00, -61182.45, -0.03, -0.03, -0.03
99, 16261.99, -9614.49, -39201.02, -41779.21, 0.00, 0.00, 0.00, -61135.91, -0.03, 0.00, -0.03
100, 16260.69, -9614.96, -39183.32, -41767.07, 0.00, 0.00, 0.00, -61024.35, -0.03, 0.00, -0.03
101, 16257.97, -9622.00, -39168.93, -41775.75, 0.00, 0.00, 0.00, -61052.65, -0.03, -0.03, -0.03
102, 16254.55, -9624.93, -39184.15, -41790.45, 0.00, 0.00, 0.00, -61166.02, 0.00, -0.03, -0.03
103, 16257.79, -9621.29, -39202.75, -41790.30, 0.00, 0.00, 0.00, -61158.10, -0.03, -0.03, -0.03
104, 16258.79, -9619.39, -39188.93, -41773.24, 0.00, 0.00, 0.00, -61041.36, -0.03, 0.00, -0.03
105, 16255.17, -9624.01, -39173.89, -41780.48, 0.00, 0.00, 0.00, -61038.97, -0.03, -0.03, 0.00
106, 16251.19, -9621.69, -39188.33, -41795.75, 0.00, 0.00, 0.00, -61160.54, 0.00, -0.03, 0.00
107, 16256.18, -9620.66, -39207.39, -41795.44, 0.00, 0.00, 0.00, -61178.27, -0.03, 0.00, 0.00
108, 16257.63, -9623.72, -39195.93, -41782.38, 0.00, 0.00, 0.00, -61064.96, -0.03, -0.03, 0.00
109, 16253.25, -9629.40, -39170.78, -41783.97, 0.00, 0.00, 0.00, -61031.95, 0.00, -0.03, 0.00
110, 16243.26, -9635.70, -39178.45, -41806.28, 0.00, 0.00, 0.00, -61147.98, -0.03, -0.03, 0.00
111, 16239.32, -9632.98, -39199.39, -41811.82, 0.00, 0.00, 0.00, -61193.51, -0.03, -0.03, 0.00
112, 16244.96, -9630.05, -39197.14, -41798.74, 0.00, 0.00, 0.00, -61090.85, 0.00, -0.03, -0.03
113, 16248.22, -9632.22, -39175.68, -41798.18, 0.00, 0.00, 0.00, -61033.14, -0.03, -0.03, -0.03
114, 16246.50, -9635.81, -39173.69, -41812.69, 0.00, 0.00, 0.00, -61127.97, -0.03, 0.00, -0.03
115, 16249.07, -9633.31, -39193.25, -41813.05, 0.00, 0.00, 0.00, -61197.66, 0.00, -0.03, -0.03
116, 16247.33, -9633.45, -39199.10, -41798.92, 0.00, 0.00, 0.00, -61111.75, -0.03, -0.03, 0.00
117, 16248.62, -9631.52, -39173.44, -41787.99, 0.00, 0.00, 0.00, -61019.63, -0.03, -0.03, -0.03
118, 16240.49, -9634.56, -39166.87, -41798.12, 0.00, 0.00, 0.00, -61092.50, 0.00, -0.03, 0.00
119, 16241.58, -9633.31, -39190.50, -41805.18, 0.00, 0.00, 0.00, -61193.04, -0.03, 0.00, 0.00
120, 16247.88, -9629.69, -39200.76, -41791.41, 0.00, 0.00, 0.00, -61132.89, 0.00, -0.03, 0.00
121, 16250.70, -9628.01, -39177.84, -41774.96, 0.00, 0.00, 0.00, -61023.30, 0.00, -0.03, -0.03
122, 16242.54, -9634.65, -39169.66, -41786.74, 0.00, 0.00, 0.00, -61069.75, -0.03, -0.03, -0.03
123, 16243.55, -9631.63, -39183.52, -41792.95, 0.00, 0.00, 0.00, -61172.72, -0.03, -0.03, -0.03
124, 16250.10, -9627.88, -39194.72, -41780.41, 0.00, 0.00, 0.00, -61136.45, -0.03, -0.03, 0.00
125, 16258.50, -9621.15, -39177.89, -41767.59, 0.00, 0.00, 0.00, -61019.88, -0.03, -0.03, -0.03
126, 16262.39, -9615.81, -39165.44, -41776.53, 0.00, 0.00, 0.00, -61037.67, -0.03, 0.00, 0.00
127, 16259.82, -9609.86, -39179.90, -41788.06, 0.00, 0.00, 0.00, -61153.36, -0.03, -0.03, -0.03
128, 16263.78, -9608.66, -39197.61, -41783.63, 0.00, 0.00, 0.00, -61150.13, 0.00, -0.03, -0.03
129, 16268.56, -9609.15, -39184.86, -41768.39, 0.00, 0.00, 0.00, -61034.48, -0.03, -0.03, -0.03
130, 16260.80, -9619.39, -39169.89, -41775.83, 0.00, 0.00, 0.00, -61025.54, -0.03, 0.00, 0.00
131, 16251.71, -9623.86, -39182.36, -41792.13, 0.00, 0.00, 0.00, -61146.39, -0.03, 0.00, -0.03
132, 16248.40, -9622.85, -39209.52, -41793.83, 0.00, 0.00, 0.00, -61178.98, -0.03, 0.00, -0.03
133, 16253.67, -9618.31, -39207.57, -41780.95, 0.00, 0.00, 0.00, -61069.64, 0.00, -0.03, 0.00
134, 16257.94, -9617.04, -39182.63, -41776.21, 0.00, 0.00, 0.00, -61024.35, -0.03, -0.03, -0.03
135, 16252.31, -9626.38, -39184.60, -41791.75, 0.00, 0.00, 0.00, -61129.07, 0.00, -0.03, -0.03
136, 16248.91, -9624.79, -39203.33, -41793.85, 0.00, 0.00, 0.00, -61179.65, -0.03, -0.03, -0.03
137, 16254.72, -9619.45, -39205.11, -41785.27, 0.00, 0.00, 0.00, -61086.71, -0.03, -0.03, -0.03
138, 16253.50, -9621.80, -39185.78, -41789.60, 0.00, 0.00, 0.00, -61022.83, -0.03, 0.00, -0.03
139, 16248.11, -9626.31, -39181.87, -41807.24, 0.00, 0.00, 0.00, -61113.27, -0.03, -0.03, -0.03
140, 16251.48, -9627.14, -39204.94, -41815.98, 0.00, 0.00, 0.00, -61197.09, 0.00, 0.00, -0.03
141, 16255.93, -9622.25, -39211.02, -41803.59, 0.00, 0.00, 0.00, -61121.47, -0.03, -0.03, 0.00
142, 16254.68, -9627.34, -39197.14, -41801.00, 0.00, 0.00, 0.00, -61037.49, -0.03, 0.00, 0.00
143, 16251.91, -9631.57, -39192.93, -41814.93, 0.00, 0.00, 0.00, -61104.88, -0.03, -0.03, 0.00
144, 16250.81, -9632.62, -39212.76, -41821.16, 0.00, 0.00, 0.00, -61205.42, -0.03, -0.03, -0.03
145, 16251.71, -9629.96, -39224.27, -41807.37, 0.00, 0.00, 0.00, -61153.34, 0.00, -0.03, -0.03
146, 16253.76, -9628.35, -39207.68, -41797.09, 0.00, 0.00, 0.00, -61047.66, -0.03, -0.03, -0.03
147, 16256.56, -9627.03, -39196.91, -41806.01, 0.00, 0.00, 0.00, -61102.34, -0.03, -0.03, -0.03
148, 16254.50, -9624.57, -39211.93, -41814.88, 0.00, 0.00, 0.00, -61222.70, 0.00, -0.03, -0.03
149, 16259.19, -9622.07, -39224.11, -41801.16, 0.00, 0.00, 0.00, -61197.26, -0.03, -0.03, -0.03
150, 16263.98, -9617.96, -39205.54, -41787.99, 0.00, 0.00, 0.00, -61084.39, -0.03, -0.03, -0.03
151, 16267.29, -9614.98, -39183.25, -41793.16, 0.00, 0.00, 0.00, -61092.77, -0.03, 0.00, 0.00
152, 16269.19, -9611.41, -39194.16, -41808.54, 0.00, 0.00, 0.00, -61215.97, -0.03, -0.03, -0.03
153, 16269.45, -9612.01, -39212.40, -41807.62, 0.00, 0.00, 0.00, -61230.03, 0.00, 0.00, 0.00
154, 16267.26, -9617.15, -39201.07, -41791.84, 0.00, 0.00, 0.00, -61118.36, 0.00, 0.00, 0.00
155, 16266.28, -9625.02, -39185.33, -41799.30, 0.00, 0.00, 0.00, -61102.89, -0.03, -0.03, 0.00
156, 16260.31, -9626.11, -39197.45, -41818.61, 0.00, 0.00, 0.00, -61221.52, 0.00, -0.03, 0.00
157, 16259.04, -9622.49, -39221.19, -41820.43, 0.00, 0.00, 0.00, -61253.21, 0.00, -0.03, 0.00
158, 16258.52, -9622.31, -39216.65, -41807.24, 0.00, 0.00, 0.00, -61135.44, 0.00, 0.00, -0.03
159, 16260.76, -9624.59, -39189.25, -41804.09, 0.00, 0.00, 0.00, -61069.84, 0.00, -0.03, 0.00
160, 16257.85, -9628.24, -39190.79, -41818.41, 0.00, 0.00, 0.00, -61163.22, -0.03, 0.00, -0.03
161, 16258.35, -9626.70, -39210.39, -41818.68, 0.00, 0.00, 0.00, -61212.42, -0.03, -0.03, -0.03
162, 16260.69, -9623.81, -39212.87, -41804.67, 0.00, 0.00, 0.00, -61109.71, -0.03, -0.03, -0.03
163, 16266.03, -9621.38, -39193.40, -41800.49, 0.00, 0.00, 0.00, -61024.80, 0.00, -0.03, 0.00
164, 16262.32, -9624.33, -39186.94, -41808.91, 0.00, 0.00, 0.00, -61096.01, 0.00, -0.03, 0.00
165, 16250.63, -9633.53, -39212.04, -41817.43, 0.00, 0.00, 0.00, -61177.01, -0.03, -0.03, 0.00
166, 16250.23, -9636.17, -39224.00, -41806.05, 0.00, 0.00, 0.00, -61104.95, 0.00, -0.03, 0.00
167, 16252.78, -9635.93, -39203.64, -41796.84, 0.00, 0.00, 0.00, -61000.66, -0.03, -0.03, -0.03
168, 16244.40, -9641.27, -39197.70, -41809.09, 0.00, 0.00, 0.00, -61052.78, -0.03, -0.03, -0.03
169, 16246.30, -9638.88, -39218.82, -41816.36, 0.00, 0.00, 0.00, -61150.19, -0.03, -0.03, -0.03
170, 16251.24, -9634.58, -39230.24, -41802.25, 0.00, 0.00, 0.00, -61111.14, 0.00, -0.03, -0.03
171, 16251.68, -9636.87, -39216.38, -41788.30, 0.00, 0.00, 0.00, -61027.75, -0.03, -0.03, -0.03
172, 16252.51, -9632.91, -39205.34, -41789.63, 0.00, 0.00, 0.00, -61078.57, 0.00, -0.03, 0.00
173, 16252.04, -9630.72, -39227.96, -41801.47, 0.00, 0.00, 0.00, -61202.61, -0.03, -0.03, 0.00
174, 16255.26, -9624.46, -39247.14, -41788.64, 0.00, 0.00, 0.00, -61196.66, -0.03, -0.03, -0.03
175, 16260.18, -9622.22, -39235.40, -41769.53, 0.00, 0.00, 0.00, -61089.64, -0.03, -0.03, 0.00
176, 16258.46, -9628.37, -39222.66, -41779.50, 0.00, 0.00, 0.00, -61099.09, 0.00, -0.03, -0.03
177, 16250.90, -9631.23, -39236.63, -41800.89, 0.00, 0.00, 0.00, -61221.43, -0.03, -0.03, -0.03
178, 16259.42, -9624.01, -39244.95, -41795.84, 0.00, 0.00, 0.00, -61219.62, -0.03, -0.03, -0.03
179, 16264.22, -9624.35, -39229.79, -41782.88, 0.00, 0.00, 0.00, -61089.11, -0.03, -0.03, 0.00
180, 16258.35, -9629.33, -39203.55, -41785.11, 0.00, 0.00, 0.00, -61040.18, -0.03, 0.00, 0.00
181, 16253.88, -9627.79, -39201.79, -41798.01, 0.00, 0.00, 0.00, -61134.19, 0.00, -0.03, -0.03
182, 16253.05, -9623.90, -39219.02, -41800.11, 0.00, 0.00, 0.00, -61173.84, -0.03, 0.00, -0.03
183, 16251.53, -9624.73, -39217.59, -41789.31, 0.00, 0.00, 0.00, -61080.59, 0.00, -0.03, -0.03
184, 16248.20, -9624.53, -39192.33, -41783.32, 0.00, 0.00, 0.00, -61028.33, -0.03, 0.00, -0.03
185, 16246.43, -9628.35, -39192.00, -41788.91, 0.00, 0.00, 0.00, -61128.33, 0.00, -0.03, 0.00
186, 16243.24, -9632.01, -39214.61, -41790.18, 0.00, 0.00, 0.00, -61207.77, 0.00, 0.00, -0.03
187, 16245.65, -9632.53, -39221.32, -41783.21, 0.00, 0.00, 0.00, -61134.63, -0.03, 0.00, 0.00
188, 16245.09, -9637.36, -39204.76, -41785.71, 0.00, 0.00, 0.00, -61057.74, -0.03, 0.00, -0.03
189, 16241.76, -9639.99, -39199.84, -41800.49, 0.00, 0.00, 0.00, -61129.36, -0.03, -0.03, -0.03
190, 16238.74, -9640.13, -39218.55, -41807.80, 0.00, 0.00, 0.00, -61221.16, -0.03, -0.03, 0.00
191, 16240.62, -9637.36, -39225.63, -41794.79, 0.00, 0.00, 0.00, -61159.15, -0.03, 0.00, -0.03
192, 16244.46, -9634.92, -39202.30, -41781.78, 0.00, 0.00, 0.00, -61060.76, 0.00, 0.00, -0.03
193, 16241.36, -9636.75, -39187.34, -41787.84, 0.00, 0.00, 0.00, -61108.59, -0.03, -0.03, -0.03
194, 16244.49, -9634.47, -39202.54, -41796.57, 0.00, 0.00, 0.00, -61210.74, -0.03, -0.03, -0.03
195, 16246.43, -9630.52, -39208.87, -41784.89, 0.00, 0.00, 0.00, -61162.91, -0.03, 0.00, 0.00
196, 16248.51, -9629.40, -39182.36, -41767.45, 0.00, 0.00, 0.00, -61033.61, -0.03, 0.00, -0.03
197, 16251.59, -9628.95, -39163.38, -41775.99, 0.00, 0.00, 0.00, -61047.77, -0.03, -0.03, -0.03
198, 16246.14, -9629.62, -39180.95, -41798.45, 0.00, 0.00, 0.00, -61165.97, -0.03, 0.00, -0.03
199, 16244.87, -9629.29, -39192.93, -41795.44, 0.00, 0.00, 0.00, -61157.95, -0.03, 0.00, -0.03
200, 16243.88, -9634.25, -39170.87, -41775.75, 0.00, 0.00, 0.00, -61033.92, -0.03, -0.03, -0.03
201, 16254.03, -9632.30, -39144.09, -41773.84, 0.00, 0.00, 0.00, -61020.66, -0.03, -0.03, 0.00
202, 16252.27, -9630.52, -39158.78, -41793.47, 0.00, 0.00, 0.00, -61140.36, -0.03, -0.03, -0.03
203, 16256.47, -9626.47, -39179.45, -41789.85, 0.00, 0.00, 0.00, -61163.13, 0.00, -0.03, 0.00
204, 16259.98, -9630.27, -39169.02, -41775.54, 0.00, 0.00, 0.00, -61050.97, -0.03, 0.00, 0.00
205, 16253.99, -9630.92, -39148.74, -41778.74, 0.00, 0.00, 0.00, -61016.30, -0.03, 0.00, -0.03
206, 16248.76, -9631.34, -39156.84, -41799.35, 0.00, 0.00, 0.00, -61130.88, -0.03, 0.00, 0.00
207, 16251.57, -9630.61, -39181.09, -41806.81, 0.00, 0.00, 0.00, -61188.79, 0.00, 0.00, -0.03
208, 16253.70, -9628.06, -39174.58, -41789.69, 0.00, 0.00, 0.00, -61084.59, 0.00, -0.03, -0.03
209, 16254.03, -9627.46, -39149.95, -41785.60, 0.00, 0.00, 0.00, -61021.69, 0.00, -0.03, -0.03
210, 16251.44, -9633.47, -39154.42, -41805.56, 0.00, 0.00, 0.00, -61122.18, -0.03, 0.00, -0.03
211, 16243.71, -9635.81, -39179.68, -41816.56, 0.00, 0.00, 0.00, -61207.14, -0.03, 0.00, -0.03
212, 16248.85, -9627.92, -39179.14, -41796.89, 0.00, 0.00, 0.00, -61121.60, 0.00, -0.03, 0.00
213, 16253.58, -9627.25, -39156.99, -41783.37, 0.00, 0.00, 0.00, -61031.39, -0.03, -0.03, 0.00
214, 16244.87, -9633.91, -39157.10, -41802.81, 0.00, 0.00, 0.00, -61107.57, -0.03, -0.03, -0.03
215, 16237.83, -9636.93, -39184.53, -41817.30, 0.00, 0.00, 0.00, -61208.98, -0.03, 0.00, -0.03
216, 16240.06, -9636.04, -39193.87, -41802.75, 0.00, 0.00, 0.00, -61149.03, 0.00, -0.03, -0.03
217, 16243.86, -9635.32, -39176.17, -41790.25, 0.00, 0.00, 0.00, -61040.38, -0.03, -0.03, -0.03
218, 16245.83, -9637.89, -39170.69, -41802.66, 0.00, 0.00, 0.00, -61082.71, -0.03, 0.00, 0.00
219, 16245.05, -9635.97, -39187.93, -41812.31, 0.00, 0.00, 0.00, -61189.71, 0.00, -0.03, 0.00
220, 16242.86, -9635.21, -39207.13, -41807.75, 0.00, 0.00, 0.00, -61162.35, -0.03, -0.03, 0.00
221, 16244.60, -9635.39, -39196.73, -41794.23, 0.00, 0.00, 0.00, -61049.03, -0.03, -0.03, -0.03
222, 16243.17, -9633.98, -39183.52, -41793.94, 0.00, 0.00, 0.00, -61060.40, -0.03, -0.03, -0.03
223, 16243.44, -9629.24, -39196.89, -41799.73, 0.00, 0.00, 0.00, -61170.93, -0.03, -0.03, -0.03
224, 16246.10, -9631.75, -39220.83, -41797.40, 0.00, 0.00, 0.00, -61176.61, -0.03, -0.03, 0.00
225, 16248.78, -9631.72, -39210.08, -41782.92, 0.00, 0.00, 0.00, -61057.95, 0.00, -0.03, -0.03
226, 16249.40, -9631.75, -39188.02, -41785.60, 0.00, 0.00, 0.00, -61036.15, -0.03, 0.00, -0.03
227, 16245.99, -9629.56, -39192.98, -41797.92, 0.00, 0.00, 0.00, -61146.84, 0.00, -0.03, -0.03
228, 16247.44, -9621.87, -39209.77, -41792.89, 0.00, 0.00, 0.00, -61170.66, -0.03, -0.03, 0.00
229, 16251.24, -9620.17, -39203.39, -41776.17, 0.00, 0.00, 0.00, -61059.42, -0.03, -0.03, -0.03
230, 16252.31, -9627.03, -39176.59, -41771.14, 0.00, 0.00, 0.00, -61006.09, -0.03, 0.00, 0.00
231, 16250.08, -9628.39, -39176.50, -41784.17, 0.00, 0.00, 0.00, -61107.48, -0.03, -0.03, -0.03
232, 16247.48, -9626.92, -39200.58, -41791.43, 0.00, 0.00, 0.00, -61167.91, 0.00, 0.00, -0.03
233, 16251.89, -9622.90, -39199.08, -41776.88, 0.00, 0.00, 0.00, -61076.12, -0.03, -0.03, -0.03
234, 16246.97, -9630.63, -39180.06, -41777.60, 0.00, 0.00, 0.00, -61007.00, -0.03, 0.00, 0.00
235, 16245.09, -9632.55, -39176.28, -41790.88, 0.00, 0.00, 0.00, -61092.61, -0.03, -0.03, -0.03
236, 16245.16, -9630.79, -39197.07, -41796.66, 0.00, 0.00, 0.00, -61174.84, 0.00, -0.03, -0.03
237, 16250.66, -9628.37, -39201.29, -41784.62, 0.00, 0.00, 0.00, -61097.24, -0.03, -0.03, -0.03
238, 16251.30, -9626.61, -39181.58, -41781.42, 0.00, 0.00, 0.00, -61005.08, -0.03, -0.03, -0.03
239, 16244.17, -9632.01, -39171.70, -41797.85, 0.00, 0.00, 0.00, -61067.38, 0.00, -0.03, 0.00
240, 16247.77, -9630.92, -39185.87, -41803.59, 0.00, 0.00, 0.00, -61166.35, 0.00, 0.00, -0.03
241, 16248.87, -9627.25, -39195.41, -41792.22, 0.00, 0.00, 0.00, -61120.66, -0.03, -0.03, 0.00
242, 16250.23, -9626.36, -39175.48, -41778.40, 0.00, 0.00, 0.00, -61013.71, -0.03, -0.03, -0.03
243, 16246.83, -9632.01, -39162.54, -41788.91, 0.00, 0.00, 0.00, -61049.88, 0.00, -0.03, -0.03
