%OpenBCI Raw EEG Data
%
%Sample Rate = 250.0 Hz
%First Column = SampleIndex
%Other Columns = EEG data in microvolts followed by Accel Data (in G) interleaved with Aux Data
0, 16755.85, -8875.07, -39376.64, -41698.70, 0.00, 0.00, 0.00, -61059.04, -0.03, -0.03, 0.00
1, 16759.65, -8874.07, -39389.18, -41690.09, 0.00, 0.00, 0.00, -61051.66, 0.00, -0.03, -0.03
2, 16765.69, -8871.12, -39374.92, -41679.50, 0.00, 0.00, 0.00, -60949.94, -0.03, -0.03, -0.03
3, 16759.25, -8876.53, -39360.62, -41691.23, 0.00, 0.00, 0.00, -60953.96, -0.03, 0.00, -0.03
4, 16749.79, -8881.96, -39370.72, -41703.48, 0.00, 0.00, 0.00, -61056.34, -0.03, -0.03, 0.00
5, 16747.85, -8885.40, -39394.43, -41703.77, 0.00, 0.00, 0.00, -61078.78, 0.00, -0.03, -0.03
6, 16752.19, -8882.52, -39389.52, -41690.85, 0.00, 0.00, 0.00, -60983.20, 0.00, -0.03, 0.00
7, 16748.45, -8888.46, -39372.71, -41694.18, 0.00, 0.00, 0.00, -60954.43, -0.03, 0.00, -0.03
8, 16744.12, -8891.17, -39383.08, -41711.86, 0.00, 0.00, 0.00, -61053.50, -0.03, -0.03, 0.00
9, 16754.62, -8881.22, -39398.73, -41707.21, 0.00, 0.00, 0.00, -61093.62, 0.00, 0.00, -0.03
10, 16762.49, -8876.37, -39396.82, -41694.43, 0.00, 0.00, 0.00, -61006.89, 0.00, -0.03, 0.00
11, 16764.39, -8876.26, -39376.24, -41694.54, 0.00, 0.00, 0.00, -60949.92, 0.00, -0.03, -0.03
12, 16759.40, -8875.03, -39371.52, -41705.43, 0.00, 0.00, 0.00, -61029.56, -0.03, 0.00, -0.03
13, 16760.14, -8872.73, -39387.26, -41705.87, 0.00, 0.00, 0.00, -61090.73, -0.03, 0.00, -0.03
14, 16767.81, -8869.51, -39384.64, -41690.79, 0.00, 0.00, 0.00, -61010.63, -0.03, -0.03, 0.00
15, 16767.83, -8870.94, -39365.91, -41687.68, 0.00, 0.00, 0.00, -60930.12, 0.00, -0.03, -0.03
16, 16771.16, -8865.60, -39357.29, -41692.28, 0.00, 0.00, 0.00, -60985.95, 0.00, 0.00, -0.03
17, 16772.62, -8864.10, -39375.21, -41692.75, 0.00, 0.00, 0.00, -61065.12, 0.00, -0.03, -0.03
18, 16769.06, -8867.21, -39389.41, -41681.51, 0.00, 0.00, 0.00, -61020.13, -0.03, -0.03, -0.03
19, 16768.48, -8871.76, -39375.30, -41675.16, 0.00, 0.00, 0.00, -60934.61, -0.03, -0.03, 0.00
20, 16764.97, -8875.14, -39371.23, -41691.81, 0.00, 0.00, 0.00, -60988.61, -0.03, 0.00, -0.03
21, 16761.04, -8871.79, -39386.57, -41699.86, 0.00, 0.00, 0.00, -61086.80, -0.03, -0.03, -0.03
22, 16768.88, -8863.29, -39393.94, -41684.55, 0.00, 0.00, 0.00, -61053.77, 0.00, -0.03, 0.00
23, 16771.90, -8861.86, -39377.85, -41672.46, 0.00, 0.00, 0.00, -60950.05, -0.03, -0.03, -0.03
24, 16775.90, -8859.40, -39358.43, -41679.57, 0.00, 0.00, 0.00, -60956.13, -0.03, -0.03, -0.03
25, 16777.08, -8858.76, -39367.10, -41689.91, 0.00, 0.00, 0.00, -61051.75, 0.00, -0.03, -0.03
26, 16782.56, -8854.80, -39382.48, -41680.93, 0.00, 0.00, 0.00, -61052.43, -0.03, -0.03, -0.03
27, 16778.69, -8865.06, -39383.59, -41674.58, 0.00, 0.00, 0.00, -60963.71, -0.03, -0.03, 0.00
28, 16772.32, -8870.33, -39370.38, -41682.89, 0.00, 0.00, 0.00, -60957.07, -0.03, -0.03, -0.03
29, 16766.96, -8871.36, -39379.57, -41698.90, 0.00, 0.00, 0.00, -61056.27, -0.03, 0.00, 0.00
30, 16764.97, -8869.71, -39395.57, -41694.36, 0.00, 0.00, 0.00, -61078.96, 0.00, -0.03, -0.03
31, 16773.38, -8866.42, -39384.71, -41680.75, 0.00, 0.00, 0.00, -60986.11, -0.03, -0.03, 0.00
32, 16765.22, -8875.32, -39368.95, -41693.07, 0.00, 0.00, 0.00, -60956.56, 0.00, -0.03, -0.03
33, 16757.86, -8878.60, -39374.47, -41707.10, 0.00, 0.00, 0.00, -61053.54, 0.00, -0.03, 0.00
34, 16756.19, -8879.14, -39397.45, -41709.49, 0.00, 0.00, 0.00, -61103.12, 0.00, -0.03, -0.03
35, 16756.43, -8882.96, -39397.63, -41700.89, 0.00, 0.00, 0.00, -61027.26, 0.00, -0.03, -0.03
36, 16764.93, -8880.21, -39373.76, -41701.78, 0.00, 0.00, 0.00, -60970.73, -0.03, -0.03, -0.03
37, 16765.84, -8876.26, -39368.51, -41716.45, 0.00, 0.00, 0.00, -61046.23, -0.03, -0.03, 0.00
38, 16763.05, -8876.50, -39392.47, -41721.52, 0.00, 0.00, 0.00, -61113.09, -0.03, -0.03, 0.00
39, 16769.35, -8867.85, -39401.39, -41706.61, 0.00, 0.00, 0.00, -61044.89, -0.03, -0.03, -0.03
40, 16774.34, -8861.73, -39388.82, -41697.27, 0.00, 0.00, 0.00, -60968.80, -0.03, 0.00, -0.03
41, 16770.83, -8858.22, -39387.44, -41703.88, 0.00, 0.00, 0.00, -61023.95, 0.00, 0.00, -0.03
42, 16766.78, -8862.49, -39416.68, -41717.85, 0.00, 0.00, 0.00, -61113.96, -0.03, -0.03, 0.00
43, 16776.17, -8857.57, -39425.75, -41705.94, 0.00, 0.00, 0.00, -61069.34, -0.03, -0.03, -0.03
44, 16776.97, -8859.99, -39406.10, -41696.44, 0.00, 0.00, 0.00, -60970.84, 0.00, -0.03, -0.03
45, 16769.87, -8866.29, -39398.05, -41710.28, 0.00, 0.00, 0.00, -61010.56, -0.03, 0.00, -0.03
46, 16767.67, -8863.56, -39414.82, -41722.01, 0.00, 0.00, 0.00, -61111.54, -0.03, -0.03, -0.03
47, 16772.03, -8858.04, -39426.49, -41708.69, 0.00, 0.00, 0.00, -61086.85, -0.03, -0.03, -0.03
48, 16775.21, -8859.83, -39411.36, -41694.09, 0.00, 0.00, 0.00, -60981.35, -0.03, 0.00, 0.00
49, 16774.89, -8860.16, -39392.76, -41697.36, 0.00, 0.00, 0.00, -60987.27, 0.00, -0.03, -0.03
50, 16773.06, -8858.96, -39400.96, -41705.83, 0.00, 0.00, 0.00, -61089.57, 0.00, -0.03, 0.00
51, 16773.31, -8862.56, -39417.28, -41701.29, 0.00, 0.00, 0.00, -61095.65, -0.03, 0.00, -0.03
52, 16773.49, -8868.88, -39413.10, -41696.48, 0.00, 0.00, 0.00, -60996.32, -0.03, 0.00, 0.00
53, 16770.09, -8870.85, -39395.93, -41704.82, 0.00, 0.00, 0.00, -60980.65, -0.03, -0.03, -0.03
54, 16764.01, -8873.06, -39403.55, -41719.46, 0.00, 0.00, 0.00, -61084.34, -0.03, 0.00, 0.00
55, 16768.01, -8867.00, -39416.03, -41712.69, 0.00, 0.00, 0.00, -61110.23, 0.00, -0.03, -0.03
56, 16776.46, -8864.10, -39415.45, -41702.09, 0.00, 0.00, 0.00, -61016.59, -0.03, -0.03, 0.00
57, 16772.99, -8872.10, -39401.36, -41714.52, 0.00, 0.00, 0.00, -60981.95, 0.00, -0.03, -0.03
58, 16768.97, -8874.07, -39401.48, -41732.98, 0.00, 0.00, 0.00, -61075.07, -0.03, -0.03, -0.03
59, 16772.19, -8866.87, -39419.96, -41733.97, 0.00, 0.00, 0.00, -61131.95, -0.03, 0.00, -0.03
60, 16782.25, -8863.34, -39420.86, -41720.20, 0.00, 0.00, 0.00, -61049.34, 0.00, -0.03, 0.00
61, 16782.99, -8862.71, -39403.24, -41718.23, 0.00, 0.00, 0.00, -60979.56, 0.00, -0.03, 0.00
62, 16776.06, -8863.05, -39403.38, -41732.54, 0.00, 0.00, 0.00, -61058.28, -0.03, -0.03, -0.03
63, 16769.42, -8866.29, -39420.74, -41734.73, 0.00, 0.00, 0.00, -61134.79, 0.00, -0.03, -0.03
64, 16772.21, -8863.79, -39427.00, -41717.81, 0.00, 0.00, 0.00, -61067.76, 0.00, -0.03, -0.03
65, 16780.13, -8860.88, -39402.64, -41704.42, 0.00, 0.00, 0.00, -60970.35, 0.00, 0.00, 0.00
66, 16771.50, -8867.54, -39399.13, -41722.57, 0.00, 0.00, 0.00, -61025.56, 0.00, 0.00, -0.03
67, 16767.00, -8864.39, -39418.48, -41731.91, 0.00, 0.00, 0.00, -61122.68, -0.03, 0.00, -0.03
68, 16778.31, -8858.67, -39425.61, -41717.05, 0.00, 0.00, 0.00, -61080.25, -0.03, 0.00, -0.03
69, 16782.65, -8855.13, -39404.36, -41702.86, 0.00, 0.00, 0.00, -60975.29, 0.00, -0.03, -0.03
70, 16780.42, -8854.53, -39387.53, -41712.33, 0.00, 0.00, 0.00, -60998.71, -0.03, 0.00, 0.00
71, 16774.43, -8857.28, -39406.59, -41729.68, 0.00, 0.00, 0.00, -61106.25, -0.03, -0.03, -0.03
72, 16783.14, -8853.21, -39420.92, -41719.69, 0.00, 0.00, 0.00, -61092.37, -0.03, -0.03, -0.03
73, 16788.80, -8853.79, -39406.39, -41707.55, 0.00, 0.00, 0.00, -60985.61, -0.03, -0.03, -0.03
74, 16785.13, -8859.69, -39392.98, -41718.73, 0.00, 0.00, 0.00, -60986.22, -0.03, 0.00, -0.03
75, 16785.06, -8855.11, -39405.23, -41729.41, 0.00, 0.00, 0.00, -61090.60, -0.03, 0.00, -0.03
76, 16784.77, -8853.62, -39426.11, -41723.96, 0.00, 0.00, 0.00, -61105.80, -0.03, 0.00, -0.03
77, 16788.15, -8854.04, -39419.96, -41709.83, 0.00, 0.00, 0.00, -61004.26, -0.03, -0.03, 0.00
78, 16786.23, -8856.41, -39397.68, -41710.25, 0.00, 0.00, 0.00, -60973.79, 0.00, -0.03, -0.03
79, 16782.25, -8859.05, -39401.68, -41719.60, 0.00, 0.00, 0.00, -61068.94, -0.03, -0.03, 0.00
80, 16775.90, -8864.66, -39423.18, -41717.88, 0.00, 0.00, 0.00, -61109.71, 0.00, -0.03, 0.00
81, 16777.42, -8866.31, -39419.29, -41706.52, 0.00, 0.00, 0.00, -61018.67, 0.00, 0.00, 0.00
82, 16782.72, -8866.58, -39391.42, -41701.25, 0.00, 0.00, 0.00, -60960.34, -0.03, -0.03, -0.03
83, 16772.66, -8871.43, -39395.71, -41715.73, 0.00, 0.00, 0.00, -61053.59, 0.00, -0.03, 0.00
84, 16767.07, -8872.90, -39417.79, -41718.12, 0.00, 0.00, 0.00, -61116.24, -0.03, -0.03, 0.00
85, 16770.47, -8872.50, -39424.05, -41705.65, 0.00, 0.00, 0.00, -61042.07, -0.03, -0.03, -0.03
86, 16777.62, -8866.58, -39401.05, -41697.02, 0.00, 0.00, 0.00, -60961.18, -0.03, -0.03, 0.00
87, 16777.71, -8861.39, -39394.25, -41705.79, 0.00, 0.00, 0.00, -61028.55, 0.00, -0.03, -0.03
88, 16773.15, -8861.37, -39411.64, -41709.98, 0.00, 0.00, 0.00, -61107.48, -0.03, 0.00, -0.03
89, 16777.62, -8859.45, -39414.86, -41693.07, 0.00, 0.00, 0.00, -61047.62, 0.00, -0.03, -0.03
90, 16780.97, -8863.11, -39392.85, -41684.04, 0.00, 0.00, 0.00, -60954.30, -0.03, -0.03, -0.03
91, 16776.35, -8865.60, -39383.48, -41697.89, 0.00, 0.00, 0.00, -61005.11, 0.00, -0.03, 0.00
92, 16771.83, -8864.50, -39401.92, -41706.21, 0.00, 0.00, 0.00, -61102.02, 0.00, -0.03, -0.03
93, 16781.49, -8858.11, -39411.80, -41692.62, 0.00, 0.00, 0.00, -61065.23, 0.00, 0.00, 0.00
94, 16784.73, -8860.92, -39398.37, -41687.37, 0.00, 0.00, 0.00, -60961.68, 0.00, -0.03, 0.00
95, 16775.72, -8867.25, -39383.32, -41699.43, 0.00, 0.00, 0.00, -60979.63, 0.00, -0.03, -0.03
96, 16773.60, -8868.55, -39395.82, -41708.78, 0.00, 0.00, 0.00, -61084.21, 0.00, -0.03, -0.03
97, 16786.18, -8860.19, -39412.52, -41697.22, 0.00, 0.00, 0.00, -61078.96, -0.03, -0.03, -0.03
98, 16784.51, -8861.71, -39408.63, -41692.11, 0.00, 0.00, 0.00, -60977.61, 0.00, -0.03, 0.00
99, 16783.66, -8860.75, -39391.35, -41697.71, 0.00, 0.00, 0.00, -60969.43, -0.03, -0.03, 0.00
100, 16785.02, -8853.15, -39394.86, -41704.87, 0.00, 0.00, 0.00, -61073.21, -0.03, -0.03, -0.03
101, 16783.05, -8855.45, -39414.75, -41703.53, 0.00, 0.00, 0.00, -61095.09, -0.03, -0.03, -0.03
102, 16785.98, -8857.26, -39406.93, -41688.06, 0.00, 0.00, 0.00, -60988.36, 0.00, -0.03, 0.00
103, 16788.26, -8860.10, -39387.77, -41692.68, 0.00, 0.00, 0.00, -60957.83, -0.03, -0.03, -0.03
104, 16783.34, -8857.91, -39390.57, -41705.87, 0.00, 0.00, 0.00, -61059.84, 0.00, -0.03, -0.03
105, 16780.21, -8860.08, -39409.86, -41705.92, 0.00, 0.00, 0.00, -61104.73, 0.00, -0.03, 0.00
106, 16782.54, -8861.88, -39406.73, -41691.79, 0.00, 0.00, 0.00, -61010.43, -0.03, -0.03, 0.00
107, 16781.44, -8864.50, -39386.21, -41689.60, 0.00, 0.00, 0.00, -60951.21, -0.03, -0.03, -0.03
108, 16779.52, -8865.17, -39385.49, -41702.97, 0.00, 0.00, 0.00, -61038.45, -0.03, 0.00, -0.03
109, 16774.89, -8866.51, -39409.23, -41711.37, 0.00, 0.00, 0.00, -61112.37, 0.00, -0.03, -0.03
110, 16780.10, -8861.24, -39414.98, -41698.77, 0.00, 0.00, 0.00, -61042.03, -0.03, -0.03, -0.03
111, 16787.23, -8858.04, -39393.99, -41690.56, 0.00, 0.00, 0.00, -60959.73, 0.00, -0.03, -0.03
112, 16778.96, -8861.48, -39390.25, -41705.43, 0.00, 0.00, 0.00, -61023.32, 0.00, -0.03, 0.00
113, 16776.84, -8858.44, -39407.27, -41712.46, 0.00, 0.00, 0.00, -61110.18, -0.03, -0.03, -0.03
114, 16777.35, -8860.72, -39415.54, -41702.12, 0.00, 0.00, 0.00, -61060.54, -0.03, -0.03, 0.00
115, 16774.25, -8867.29, -39397.68, -41693.20, 0.00, 0.00, 0.00, -60962.26, 0.00, 0.00, -0.03
116, 16770.67, -8862.94, -39381.18, -41697.49, 0.00, 0.00, 0.00, -60996.48, 0.00, -0.03, -0.03
117, 16773.55, -8860.25, -39394.14, -41706.68, 0.00, 0.00, 0.00, -61094.96, -0.03, -0.03, 0.00
118, 16777.62, -8859.96, -39412.81, -41704.69, 0.00, 0.00, 0.00, -61081.48, -0.03, 0.00, -0.03
119, 16780.19, -8861.75, -39398.88, -41696.60, 0.00, 0.00, 0.00, -60974.46, -0.03, -0.03, -0.03
120, 16782.43, -8855.18, -39375.21, -41695.52, 0.00, 0.00, 0.00, -60974.30, 0.00, -0.03, -0.03
121, 16777.76, -8859.43, -39390.75, -41711.10, 0.00, 0.00, 0.00, -61080.32, -0.03, -0.03, 0.00
122, 16773.08, -8868.66, -39413.81, -41714.48, 0.00, 0.00, 0.00, -61090.04, -0.03, -0.03, -0.03
123, 16782.14, -8863.03, -39395.71, -41697.40, 0.00, 0.00, 0.00, -60977.70, 0.00, 0.00, -0.03
124, 16778.52, -8865.77, -39378.43, -41701.94, 0.00, 0.00, 0.00, -60962.86, 0.00, 0.00, -0.03
125, 16774.07, -8864.08, -39388.89, -41715.73, 0.00, 0.00, 0.00, -61070.84, -0.03, -0.03, 0.00
126, 16777.84, -8862.00, -39411.73, -41712.94, 0.00, 0.00, 0.00, -61100.66, 0.00, -0.03, -0.03
127, 16783.05, -8862.33, -39406.64, -41697.42, 0.00, 0.00, 0.00, -60998.51, 0.00, -0.03, -0.03
128, 16778.20, -8866.91, -39386.50, -41697.47, 0.00, 0.00, 0.00, -60949.90, -0.03, -0.03, -0.03
129, 16768.01, -8870.94, -39393.92, -41710.07, 0.00, 0.00, 0.00, -61048.85, 0.00, -0.03, -0.03
130, 16767.67, -8867.92, -39416.90, -41708.04, 0.00, 0.00, 0.00, -61108.15, 0.00, 0.00, -0.03
131, 16785.22, -8856.41, -39412.36, -41688.28, 0.00, 0.00, 0.00, -61017.78, -0.03, -0.03, -0.03
132, 16784.06, -8857.84, -39390.41, -41685.67, 0.00, 0.00, 0.00, -60948.15, 0.00, -0.03, -0.03
133, 16773.75, -8862.62, -39391.57, -41702.34, 0.00, 0.00, 0.00, -61029.78, 0.00, 0.00, -0.03
134, 16771.14, -8861.48, -39409.39, -41705.98, 0.00, 0.00, 0.00, -61108.35, -0.03, 0.00, -0.03
135, 16772.10, -8862.71, -39415.00, -41691.48, 0.00, 0.00, 0.00, -61041.96, 0.00, -0.03, -0.03
136, 16776.55, -8862.31, -39394.61, -41684.73, 0.00, 0.00, 0.00, -60954.01, 0.00, 0.00, -0.03
137, 16772.17, -8870.02, -39387.93, -41702.18, 0.00, 0.00, 0.00, -61010.65, -0.03, -0.03, -0.03
138, 16768.84, -8869.33, -39403.80, -41710.16, 0.00, 0.00, 0.00, -61103.95, -0.03, -0.03, -0.03
139, 16777.76, -8864.50, -39411.13, -41699.77, 0.00, 0.00, 0.00, -61059.35, -0.03, -0.03, -0.03
140, 16782.05, -8866.04, -39391.46, -41689.31, 0.00, 0.00, 0.00, -60954.79, -0.03, -0.03, -0.03
141, 16779.83, -8864.68, -39377.83, -41698.70, 0.00, 0.00, 0.00, -60981.28, 0.00, -0.03, -0.03
142, 16776.41, -8863.79, -39392.18, -41712.69, 0.00, 0.00, 0.00, -61084.59, -0.03, -0.03, -0.03
143, 16779.59, -8867.18, -39408.45, -41709.52, 0.00, 0.00, 0.00, -61069.03, -0.03, 0.00, -0.03
144, 16785.44, -8864.59, -39395.55, -41698.70, 0.00, 0.00, 0.00, -60966.59, -0.03, -0.03, 0.00
145, 16787.30, -8862.78, -39375.21, -41702.25, 0.00, 0.00, 0.00, -60964.92, 0.00, -0.03, 0.00
146, 16779.28, -8867.43, -39386.95, -41715.39, 0.00, 0.00, 0.00, -61073.17, -0.03, 0.00, -0.03
147, 16789.02, -8857.37, -39400.18, -41705.43, 0.00, 0.00, 0.00, -61081.04, -0.03, -0.03, 0.00
148, 16787.90, -8861.73, -39395.30, -41697.25, 0.00, 0.00, 0.00, -60980.59, -0.03, -0.03, -0.03
149, 16781.58, -8870.51, -39380.11, -41704.69, 0.00, 0.00, 0.00, -60953.81, -0.03, -0.03, 0.00
150, 16782.00, -8866.31, -39379.77, -41710.86, 0.00, 0.00, 0.00, -61045.25, -0.03, -0.03, -0.03
151, 16779.59, -8864.30, -39400.94, -41707.28, 0.00, 0.00, 0.00, -61081.66, 0.00, -0.03, -0.03
152, 16783.61, -8863.18, -39403.80, -41696.38, 0.00, 0.00, 0.00, -60993.71, -0.03, 0.00, 0.00
153, 16778.87, -8867.65, -39384.96, -41698.56, 0.00, 0.00, 0.00, -60939.53, 0.00, -0.03, -0.03
154, 16776.39, -8865.30, -39378.72, -41709.72, 0.00, 0.00, 0.00, -61022.16, -0.03, -0.03, -0.03
155, 16777.84, -8860.61, -39392.73, -41707.93, 0.00, 0.00, 0.00, -61081.08, -0.03, -0.03, 0.00
156, 16780.10, -8860.66, -39397.94, -41695.64, 0.00, 0.00, 0.00, -61004.99, -0.03, -0.03, -0.03
157, 16781.76, -8861.80, -39379.57, -41689.29, 0.00, 0.00, 0.00, -60929.76, -0.03, -0.03, 0.00
158, 16776.21, -8862.06, -39375.77, -41698.68, 0.00, 0.00, 0.00, -60997.84, -0.03, 0.00, -0.03
159, 16773.49, -8862.78, -39398.21, -41705.29, 0.00, 0.00, 0.00, -61077.66, -0.03, -0.03, 0.00
160, 16777.31, -8862.33, -39412.25, -41695.70, 0.00, 0.00, 0.00, -61024.48, -0.03, -0.03, 0.00
161, 16779.97, -8862.89, -39394.99, -41688.55, 0.00, 0.00, 0.00, -60933.78, 0.00, 0.00, -0.03
162, 16774.49, -8867.18, -39385.32, -41702.90, 0.00, 0.00, 0.00, -60983.45, -0.03, -0.03, 0.00
163, 16770.29, -8866.60, -39397.38, -41712.87, 0.00, 0.00, 0.00, -61079.02, -0.03, 0.00, -0.03
164, 16777.40, -8866.49, -39409.03, -41706.61, 0.00, 0.00, 0.00, -61048.54, -0.03, 0.00, -0.03
165, 16786.18, -8858.26, -39391.19, -41694.41, 0.00, 0.00, 0.00, -60946.52, -0.03, 0.00, -0.03
166, 16778.74, -8862.04, -39375.79, -41705.80, 0.00, 0.00, 0.00, -60963.17, 0.00, 0.00, 0.00
167, 16772.05, -8864.86, -39386.81, -41718.01, 0.00, 0.00, 0.00, -61065.32, -0.03, 0.00, -0.03
168, 16777.40, -8858.11, -39402.04, -41711.13, 0.00, 0.00, 0.00, -61063.36, -0.03, -0.03, -0.03
169, 16788.19, -8858.58, -39390.70, -41695.32, 0.00, 0.00, 0.00, -60957.90, -0.03, -0.03, -0.03
170, 16786.07, -8861.48, -39373.00, -41701.29, 0.00, 0.00, 0.00, -60948.60, 0.00, 0.00, -0.03
171, 16773.66, -8866.94, -39387.15, -41719.21, 0.00, 0.00, 0.00, -61059.75, -0.03, -0.03, -0.03
172, 16770.98, -8867.36, -39410.62, -41716.51, 0.00, 0.00, 0.00, -61084.68, -0.03, -0.03, 0.00
173, 16779.19, -8862.96, -39402.57, -41698.39, 0.00, 0.00, 0.00, -60983.09, 0.00, -0.03, 0.00
174, 16778.45, -8864.99, -39377.38, -41695.97, 0.00, 0.00, 0.00, -60938.83, -0.03, -0.03, 0.00
175, 16777.96, -8864.86, -39376.89, -41707.88, 0.00, 0.00, 0.00, -61032.17, -0.03, -0.03, -0.03
176, 16781.96, -8862.82, -39394.03, -41706.30, 0.00, 0.00, 0.00, -61083.49, 0.00, -0.03, -0.03
177, 16786.79, -8861.48, -39394.28, -41691.70, 0.00, 0.00, 0.00, -60994.11, -0.03, 0.00, -0.03
178, 16784.33, -8861.08, -39374.47, -41686.92, 0.00, 0.00, 0.00, -60930.50, -0.03, -0.03, 0.00
179, 16781.46, -8862.02, -39374.65, -41699.99, 0.00, 0.00, 0.00, -61019.34, 0.00, 0.00, 0.00
180, 16780.66, -8863.83, -39398.77, -41705.67, 0.00, 0.00, 0.00, -61094.22, -0.03, -0.03, 0.00
181, 16785.73, -8862.24, -39402.23, -41691.59, 0.00, 0.00, 0.00, -61019.61, -0.03, -0.03, -0.03
182, 16782.61, -8867.70, -39386.97, -41690.85, 0.00, 0.00, 0.00, -60938.65, 0.00, 0.00, 0.00
183, 16774.00, -8871.94, -39383.93, -41708.67, 0.00, 0.00, 0.00, -61007.74, -0.03, 0.00, 0.00
184, 16771.65, -8870.47, -39400.36, -41717.56, 0.00, 0.00, 0.00, -61099.45, 0.00, -0.03, -0.03
185, 16774.22, -8871.85, -39411.13, -41710.21, 0.00, 0.00, 0.00, -61052.40, -0.03, -0.03, -0.03
186, 16776.30, -8870.00, -39398.05, -41707.19, 0.00, 0.00, 0.00, -60959.51, -0.03, 0.00, -0.03
187, 16776.17, -8870.89, -39390.46, -41721.38, 0.00, 0.00, 0.00, -61003.88, 0.00, -0.03, -0.03
188, 16771.59, -8868.10, -39402.37, -41728.98, 0.00, 0.00, 0.00, -61102.83, -0.03, 0.00, -0.03
189, 16774.07, -8865.84, -39415.20, -41719.02, 0.00, 0.00, 0.00, -61077.66, 0.00, -0.03, -0.03
190, 16776.75, -8867.88, -39405.66, -41709.98, 0.00, 0.00, 0.00, -60971.18, -0.03, -0.03, -0.03
191, 16785.69, -8860.08, -39381.00, -41703.86, 0.00, 0.00, 0.00, -60968.98, -0.03, 0.00, -0.03
192, 16787.70, -8845.52, -39377.34, -41701.65, 0.00, 0.00, 0.00, -61059.11, 0.00, -0.03, -0.03
193, 16785.02, -8847.80, -39399.64, -41700.51, 0.00, 0.00, 0.00, -61064.79, 0.00, -0.03, 0.00
194, 16787.23, -8850.26, -39390.07, -41687.12, 0.00, 0.00, 0.00, -60954.46, -0.03, -0.03, -0.03
195, 16777.06, -8858.71, -39372.71, -41691.72, 0.00, 0.00, 0.00, -60936.53, -0.03, -0.03, 0.00
196, 16773.49, -8860.43, -39378.34, -41705.61, 0.00, 0.00, 0.00, -61042.43, -0.03, -0.03, 0.00
197, 16776.39, -8859.58, -39398.88, -41705.02, 0.00, 0.00, 0.00, -61076.79, 0.00, 0.00, -0.03
198, 16780.39, -8859.72, -39392.73, -41690.29, 0.00, 0.00, 0.00, -60976.52, -0.03, -0.03, -0.03
199, 16786.90, -8857.97, -39370.05, -41689.18, 0.00, 0.00, 0.00, -60927.07, 0.00, 0.00, -0.03
200, 16778.58, -8859.52, -39373.94, -41704.13, 0.00, 0.00, 0.00, -61023.41, -0.03, -0.03, -0.03
201, 16777.78, -8855.89, -39391.82, -41702.61, 0.00, 0.00, 0.00, -61080.97, -0.03, -0.03, -0.03
202, 16779.77, -8860.03, -39397.86, -41693.80, 0.00, 0.00, 0.00, -61000.05, -0.03, 0.00, -0.03
203, 16779.54, -8862.35, -39379.66, -41691.37, 0.00, 0.00, 0.00, -60929.51, -0.03, -0.03, 0.00
204, 16775.12, -8862.42, -39376.11, -41702.36, 0.00, 0.00, 0.00, -61006.58, -0.03, -0.03, -0.03
205, 16775.41, -8860.14, -39395.20, -41705.36, 0.00, 0.00, 0.00, -61083.96, -0.03, 0.00, -0.03
206, 16786.67, -8849.90, -39401.23, -41689.02, 0.00, 0.00, 0.00, -61018.18, -0.03, -0.03, 0.00
207, 16788.71, -8850.37, -39386.84, -41686.45, 0.00, 0.00, 0.00, -60933.69, 0.00, -0.03, -0.03
208, 16773.22, -8858.60, -39380.31, -41704.00, 0.00, 0.00, 0.00, -60989.48, -0.03, -0.03, -0.03
209, 16774.07, -8855.51, -39395.20, -41709.00, 0.00, 0.00, 0.00, -61082.75, -0.03, 0.00, -0.03
210, 16780.37, -8856.07, -39410.73, -41702.57, 0.00, 0.00, 0.00, -61047.82, 0.00, 0.00, -0.03
211, 16775.01, -8863.56, -39399.51, -41701.34, 0.00, 0.00, 0.00, -60952.11, -0.03, -0.03, -0.03
212, 16770.80, -8863.16, -39381.25, -41711.41, 0.00, 0.00, 0.00, -60976.14, -0.03, -0.03, -0.03
213, 16764.43, -8862.96, -39396.20, -41724.47, 0.00, 0.00, 0.00, -61080.88, 0.00, 0.00, -0.03
214, 16767.67, -8861.44, -39412.36, -41718.55, 0.00, 0.00, 0.00, -61070.53, -0.03, -0.03, -0.03
215, 16778.27, -8855.13, -39392.18, -41698.63, 0.00, 0.00, 0.00, -60953.47, -0.03, -0.03, 0.00
216, 16776.19, -8861.15, -39371.01, -41700.66, 0.00, 0.00, 0.00, -60946.61, 0.00, -0.03, 0.00
217, 16769.17, -8861.28, -39377.22, -41706.21, 0.00, 0.00, 0.00, -61048.94, -0.03, 0.00, -0.03
218, 16770.42, -8856.30, -39391.86, -41693.58, 0.00, 0.00, 0.00, -61060.80, 0.00, -0.03, -0.03
219, 16777.96, -8851.87, -39382.18, -41677.51, 0.00, 0.00, 0.00, -60952.56, 0.00, 0.00, -0.03
220, 16770.92, -8855.67, -39363.48, -41685.60, 0.00, 0.00, 0.00, -60924.04, -0.03, -0.03, 0.00
221, 16766.76, -8856.50, -39368.59, -41699.95, 0.00, 0.00, 0.00, -61027.57, -0.03, -0.03, 0.00
222, 16772.75, -8855.56, -39391.04, -41698.16, 0.00, 0.00, 0.00, -61066.33, -0.03, -0.03, 0.00
223, 16775.34, -8854.51, -39395.20, -41682.61, 0.00, 0.00, 0.00, -60973.37, -0.03, -0.03, -0.03
224, 16773.71, -8856.52, -39378.59, -41682.79, 0.00, 0.00, 0.00, -60923.34, -0.03, -0.03, 0.00
225, 16769.48, -8857.62, -39376.57, -41698.61, 0.00, 0.00, 0.00, -61010.89, -0.03, -0.03, -0.03
226, 16766.51, -8856.32, -39391.13, -41698.34, 0.00, 0.00, 0.00, -61069.37, -0.03, -0.03, -0.03
227, 16775.83, -8857.35, -39386.41, -41681.31, 0.00, 0.00, 0.00, -60985.13, 0.00, -0.03, 0.00
228, 16772.30, -8866.20, -39369.22, -41684.64, 0.00, 0.00, 0.00, -60912.23, -0.03, -0.03, -0.03
229, 16765.44, -8871.67, -39365.04, -41702.79, 0.00, 0.00, 0.00, -60985.50, -0.03, -0.03, -0.03
230, 16759.20, -8873.20, -39382.59, -41710.57, 0.00, 0.00, 0.00, -61074.08, 0.00, -0.03, -0.03
231, 16763.23, -8873.67, -39389.23, -41697.94, 0.00, 0.00, 0.00, -61017.45, 0.00, 0.00, -0.03
232, 16764.48, -8876.32, -39372.24, -41692.28, 0.00, 0.00, 0.00, -60921.73, -0.03, -0.03, -0.03
233, 16760.54, -8874.45, -39357.13, -41700.02, 0.00, 0.00, 0.00, -60966.04, -0.03, 0.00, -0.03
234, 16756.52, -8879.32, -39380.55, -41716.27, 0.00, 0.00, 0.00, -61075.71, -0.03, -0.03, -0.03
235, 16759.00, -8880.35, -39397.09, -41711.28, 0.00, 0.00, 0.00, -61047.33, -0.03, 0.00, -0.03
236, 16758.20, -8886.23, -39391.28, -41707.75, 0.00, 0.00, 0.00, -60951.35, -0.03, 0.00, -0.03
237, 16761.84, -8878.54, -39372.33, -41708.91, 0.00, 0.00, 0.00, -60964.20, -0.03, -0.03, -0.03
238, 16760.37, -8875.92, -39385.36, -41720.89, 0.00, 0.00, 0.00, -61073.43, -0.03, 0.00, -0.03
239, 16766.63, -8873.93, -39402.13, -41715.66, 0.00, 0.00, 0.00, -61069.30, 0.00, -0.03, -0.03
240, 16768.99, -8874.40, -39393.29, -41709.29, 0.00, 0.00, 0.00, -60962.66, -0.03, 0.00, -0.03
241, 16768.01, -8875.45, -39378.92, -41716.02, 0.00, 0.00, 0.00, -60953.79, -0.03, 0.00, -0.03
242, 16764.32, -8873.53, -39390.50, -41727.57, 0.00, 0.00, 0.00, -61062.97, 0.00, -0.03, -0.03
243, 16767.18, -8867.23, -39404.36, -41718.73, 0.00, 0.00, 0.00, -61082.93, -0.03, -0.03, -0.03
244, 16772.26, -8861.28, -39392.73, -41698.30, 0.00, 0.00, 0.00, -60973.07, 0.00, 0.00, -0.03
245, 16764.90, -8869.48, -39378.32, -41703.97, 0.00, 0.00, 0.00, -60938.36, -0.03, 0.00, -0.03
246, 16761.60, -8865.55, -39376.38, -41713.14, 0.00, 0.00, 0.00, -61033.61, 0.00, -0.03, -0.03
247, 16761.75, -8866.07, -39398.50, -41715.62, 0.00, 0.00, 0.00, -61088.14, -0.03, -0.03, 0.00
248, 16766.74, -8865.15, -39400.69, -41700.46, 0.00, 0.00, 0.00, -61000.90, -0.03, -0.03, -0.03
249, 16767.29, -8866.00, -39379.68, -41694.14, 0.00, 0.00, 0.00, -60930.32, -0.03, -0.03, -0.03
250, 16769.04, -8862.71, -39372.53, -41702.18, 0.00, 0.00, 0.00, -61009.35, 0.00, 0.00, 0.00
251, 16769.57, -8862.00, -39391.73, -41708.24, 0.00, 0.00, 0.00, -61082.93, -0.03, -0.03, -0.03
252, 16770.38, -8863.38, -39398.23, -41696.86, 0.00, 0.00, 0.00, -61009.80, 0.00, -0.03, -0.03
253, 16770.42, -8867.27, -39378.68, -41691.41, 0.00, 0.00, 0.00, -60922.89, 0.00, -0.03, 0.00
254, 16763.34, -8870.42, -39375.66, -41706.88, 0.00, 0.00, 0.00, -60987.63, 0.00, 0.00, -0.03
255, 16758.13, -8871.54, -39396.87, -41713.58, 0.00, 0.00, 0.00, -61084.10, -0.03, 0.00, 0.00
0, 16759.23, -8869.66, -39406.64, -41700.71, 0.00, 0.00, 0.00, -61036.71, 0.00, 0.00, -0.03
1, 16752.25, -8880.15, -39394.81, -41699.12, 0.00, 0.00, 0.00, -60940.78, -0.03, 0.00, 0.00
2, 16750.80, -8881.78, -39379.50, -41709.16, 0.00, 0.00, 0.00, -60973.93, 0.00, -0.03, -0.03
3, 16748.85, -8883.88, -39397.23, -41723.15, 0.00, 0.00, 0.00, -61079.76, 0.00, -0.03, -0.03
4, 16751.45, -8887.79, -39413.43, -41717.72, 0.00, 0.00, 0.00, -61062.30, 0.00, 0.00, 0.00
5, 16753.01, -8890.54, -39400.25, -41709.45, 0.00, 0.00, 0.00, -60957.21, -0.03, 0.00, 0.00
6, 16749.48, -8890.96, -39384.58, -41718.46, 0.00, 0.00, 0.00, -60965.72, 0.00, 0.00, -0.03
7, 16745.01, -8888.26, -39392.29, -41728.22, 0.00, 0.00, 0.00, -61069.30, -0.03, 0.00, -0.03
8, 16741.48, -8893.54, -39410.19, -41727.04, 0.00, 0.00, 0.00, -61076.63, 0.00, -0.03, 0.00
9, 16751.58, -8890.29, -39397.52, -41714.43, 0.00, 0.00, 0.00, -60965.75, -0.03, -0.03, -0.03
10, 16752.34, -8888.42, -39378.83, -41719.73, 0.00, 0.00, 0.00, -60949.74, 0.00, -0.03, 0.00
11, 16741.81, -8894.94, -39391.30, -41738.53, 0.00, 0.00, 0.00, -61060.09, -0.03, -0.03, -0.03
12, 16749.05, -8884.93, -39402.28, -41726.30, 0.00, 0.00, 0.00, -61086.62, -0.03, -0.03, 0.00
13, 16750.96, -8884.91, -39402.26, -41712.42, 0.00, 0.00, 0.00, -60986.49, -0.03, -0.03, 0.00
14, 16752.47, -8882.61, -39384.09, -41709.98, 0.00, 0.00, 0.00, -60938.27, 0.00, 0.00, -0.03
15, 16746.89, -8880.88, -39392.18, -41728.56, 0.00, 0.00, 0.00, -61040.02, 0.00, -0.03, -0.03
16, 16743.20, -8884.08, -39416.00, -41734.59, 0.00, 0.00, 0.00, -61103.95, 0.00, 0.00, -0.03
17, 16743.27, -8884.42, -39415.73, -41720.51, 0.00, 0.00, 0.00, -61017.89, -0.03, -0.03, 0.00
18, 16743.38, -8886.45, -39395.55, -41717.14, 0.00, 0.00, 0.00, -60946.41, -0.03, 0.00, -0.03
19, 16742.42, -8884.82, -39387.35, -41724.54, 0.00, 0.00, 0.00, -61017.29, -0.03, -0.03, -0.03
20, 16745.41, -8878.20, -39397.77, -41722.23, 0.00, 0.00, 0.00, -61089.11, 0.00, -0.03, 0.00
21, 16756.01, -8872.84, -39401.43, -41705.61, 0.00, 0.00, 0.00, -61015.48, -0.03, 0.00, -0.03
22, 16757.68, -8873.75, -39383.28, -41697.02, 0.00, 0.00, 0.00, -60921.96, -0.03, -0.03, -0.03
23, 16753.79, -8876.35, -39371.84, -41708.33, 0.00, 0.00, 0.00, -60971.06, 0.00, 0.00, -0.03
24, 16750.38, -8874.94, -39386.39, -41715.64, 0.00, 0.00, 0.00, -61066.37, -0.03, -0.03, -0.03
25, 16746.96, -8882.78, -39401.90, -41710.50, 0.00, 0.00, 0.00, -61032.24, -0.03, -0.03, -0.03
26, 16757.10, -8879.61, -39378.50, -41698.41, 0.00, 0.00, 0.00, -60927.55, 0.00, 0.00, -0.03
27, 16753.57, -8880.71, -39364.35, -41709.96, 0.00, 0.00, 0.00, -60955.98, 0.00, 0.00, -0.03
28, 16749.68, -8877.98, -39381.45, -41721.59, 0.00, 0.00, 0.00, -61066.57, 0.00, -0.03, 0.00
29, 16753.77, -8872.46, -39394.86, -41713.29, 0.00, 0.00, 0.00, -61048.76, -0.03, -0.03, -0.03
30, 16756.48, -8877.11, -39381.52, -41702.50, 0.00, 0.00, 0.00, -60940.13, -0.03, -0.03, -0.03
31, 16752.61, -8880.48, -39363.45, -41706.48, 0.00, 0.00, 0.00, -60937.96, -0.03, 0.00, 0.00
32, 16744.94, -8882.54, -39378.27, -41718.32, 0.00, 0.00, 0.00, -61048.45, -0.03, 0.00, 0.00
33, 16733.92, -8894.14, -39409.90, -41724.13, 0.00, 0.00, 0.00, -61075.45, -0.03, 0.00, 0.00
34, 16745.05, -8889.87, -39400.00, -41710.48, 0.00, 0.00, 0.00, -60969.48, -0.03, -0.03, -0.03
35, 16745.57, -8888.30, -39380.24, -41712.69, 0.00, 0.00, 0.00, -60936.80, -0.03, -0.03, 0.00
36, 16738.62, -8888.93, -39385.98, -41721.96, 0.00, 0.00, 0.00, -61037.14, -0.03, -0.03, 0.00
37, 16743.24, -8885.29, -39401.92, -41716.09, 0.00, 0.00, 0.00, -61077.46, 0.00, -0.03, 0.00
38, 16750.91, -8884.46, -39400.04, -41704.38, 0.00, 0.00, 0.00, -60978.06, 0.00, 0.00, -0.03
39, 16749.75, -8887.99, -39380.60, -41706.99, 0.00, 0.00, 0.00, -60923.01, -0.03, 0.00, 0.00
40, 16746.80, -8887.52, -39380.33, -41721.18, 0.00, 0.00, 0.00, -61016.17, -0.03, -0.03, -0.03
41, 16743.22, -8886.99, -39400.85, -41723.53, 0.00, 0.00, 0.00, -61083.63, -0.03, 0.00, -0.03
42, 16750.35, -8888.95, -39403.24, -41709.56, 0.00, 0.00, 0.00, -61002.87, 0.00, 0.00, -0.03
43, 16747.89, -8891.26, -39384.46, -41704.49, 0.00, 0.00, 0.00, -60925.42, -0.03, -0.03, -0.03
44, 16740.43, -8891.57, -39377.02, -41714.97, 0.00, 0.00, 0.00, -60991.25, -0.03, -0.03, 0.00
45, 16739.58, -8886.14, -39394.46, -41716.64, 0.00, 0.00, 0.00, -61076.83, 0.00, -0.03, -0.03
46, 16747.96, -8885.56, -39407.40, -41707.21, 0.00, 0.00, 0.00, -61025.63, -0.03, -0.03, -0.03
47, 16751.13, -8887.10, -39388.45, -41700.06, 0.00, 0.00, 0.00, -60929.29, 0.00, -0.03, -0.03
48, 16738.48, -8896.13, -39379.10, -41714.55, 0.00, 0.00, 0.00, -60976.03, 0.00, 0.00, -0.03
49, 16741.03, -8890.47, -39389.07, -41718.41, 0.00, 0.00, 0.00, -61070.60, -0.03, -0.03, -0.03
50, 16746.46, -8882.49, -39401.74, -41705.79, 0.00, 0.00, 0.00, -61040.18, -0.03, -0.03, -0.03
51, 16740.88, -8885.62, -39390.59, -41700.87, 0.00, 0.00, 0.00, -60937.56, -0.03, -0.03, 0.00
52, 16743.20, -8888.44, -39373.07, -41711.13, 0.00, 0.00, 0.00, -60951.28, -0.03, 0.00, -0.03
53, 16734.55, -8893.13, -39390.99, -41727.51, 0.00, 0.00, 0.00, -61061.86, -0.03, 0.00, 0.00
54, 16736.29, -8888.10, -39411.15, -41719.48, 0.00, 0.00, 0.00, -61061.05, 0.00, -0.03, -0.03
55, 16741.43, -8886.32, -39400.63, -41704.58, 0.00, 0.00, 0.00, -60953.32, -0.03, -0.03, 0.00
56, 16739.53, -8886.65, -39379.46, -41705.85, 0.00, 0.00, 0.00, -60939.50, -0.03, -0.03, -0.03
57, 16735.78, -8883.90, -39384.06, -41717.16, 0.00, 0.00, 0.00, -61045.47, 0.00, 0.00, -0.03
58, 16734.44, -8884.75, -39401.25, -41713.52, 0.00, 0.00, 0.00, -61067.00, -0.03, 0.00, -0.03
59, 16745.72, -8878.49, -39392.51, -41694.07, 0.00, 0.00, 0.00, -60958.12, 0.00, -0.03, -0.03
60, 16743.36, -8879.72, -39374.09, -41693.33, 0.00, 0.00, 0.00, -60918.31, 0.00, 0.00, -0.03
61, 16736.54, -8884.84, -39380.24, -41709.47, 0.00, 0.00, 0.00, -61020.35, -0.03, -0.03, -0.03
62, 16738.26, -8883.52, -39397.14, -41707.57, 0.00, 0.00, 0.00, -61068.14, 0.00, -0.03, -0.03
63, 16742.06, -8884.08, -39398.17, -41697.82, 0.00, 0.00, 0.00, -60981.17, -0.03, -0.03, -0.03
64, 16746.73, -8884.33, -39377.94, -41698.95, 0.00, 0.00, 0.00, -60918.09, -0.03, -0.03, -0.03
65, 16744.94, -8882.78, -39373.31, -41712.80, 0.00, 0.00, 0.00, -61000.75, 0.00, -0.03, -0.03
66, 16741.19, -8882.94, -39392.60, -41718.61, 0.00, 0.00, 0.00, -61074.15, 0.00, 0.00, -0.03
67, 16741.77, -8884.06, -39397.00, -41705.54, 0.00, 0.00, 0.00, -61002.02, -0.03, 0.00, 0.00
68, 16738.88, -8888.15, -39375.19, -41696.35, 0.00, 0.00, 0.00, -60911.43, -0.03, -0.03, -0.03
69, 16736.11, -8895.70, -39368.82, -41709.29, 0.00, 0.00, 0.00, -60971.33, -0.03, -0.03, 0.00
70, 16729.36, -8900.11, -39393.90, -41721.07, 0.00, 0.00, 0.00, -61072.94, -0.03, -0.03, -0.03
71, 16726.62, -8906.23, -39411.49, -41719.35, 0.00, 0.00, 0.00, -61035.95, -0.03, -0.03, -0.03
72, 16737.16, -8899.77, -39392.63, -41708.80, 0.00, 0.00, 0.00, -60937.38, 0.00, -0.03, -0.03
73, 16736.67, -8896.28, -39383.39, -41717.79, 0.00, 0.00, 0.00, -60974.48, -0.03, -0.03, 0.00
74, 16733.99, -8897.00, -39405.70, -41731.13, 0.00, 0.00, 0.00, -61081.97, 0.00, -0.03, -0.03
75, 16733.81, -8894.56, -39421.17, -41724.96, 0.00, 0.00, 0.00, -61066.95, -0.03, 0.00, -0.03
76, 16739.94, -8891.01, -39398.68, -41712.60, 0.00, 0.00, 0.00, -60950.95, 0.00, 0.00, -0.03
77, 16737.86, -8893.33, -39379.44, -41721.54, 0.00, 0.00, 0.00, -60954.66, 0.00, -0.03, 0.00
78, 16735.26, -8895.37, -39391.33, -41733.84, 0.00, 0.00, 0.00, -61064.96, -0.03, -0.03, -0.03
79, 16737.63, -8892.62, -39407.75, -41727.64, 0.00, 0.00, 0.00, -61069.14, -0.03, -0.03, -0.03
80, 16738.91, -8894.97, -39401.43, -41716.27, 0.00, 0.00, 0.00, -60961.83, 0.00, -0.03, -0.03
81, 16742.37, -8892.91, -39379.21, -41716.94, 0.00, 0.00, 0.00, -60933.45, 0.00, 0.00, 0.00
82, 16736.40, -8892.57, -39385.32, -41729.63, 0.00, 0.00, 0.00, -61039.04, 0.00, -0.03, -0.03
83, 16735.71, -8887.79, -39400.56, -41719.73, 0.00, 0.00, 0.00, -61068.38, 0.00, 0.00, 0.00
84, 16740.47, -8886.25, -39399.91, -41707.44, 0.00, 0.00, 0.00, -60972.00, 0.00, 0.00, 0.00
85, 16741.54, -8889.98, -39380.29, -41708.84, 0.00, 0.00, 0.00, -60923.63, 0.00, 0.00, 0.00
86, 16741.32, -8889.78, -39378.30, -41720.49, 0.00, 0.00, 0.00, -61012.35, -0.03, -0.03, 0.00
87, 16732.76, -8892.40, -39403.04, -41724.38, 0.00, 0.00, 0.00, -61073.03, -0.03, -0.03, 0.00
88, 16734.77, -8889.94, -39403.53, -41707.59, 0.00, 0.00, 0.00, -60989.66, -0.03, -0.03, -0.03
89, 16737.84, -8889.09, -39382.68, -41704.42, 0.00, 0.00, 0.00, -60915.70, 0.00, 0.00, 0.00
90, 16735.49, -8886.14, -39375.50, -41712.15, 0.00, 0.00, 0.00, -60987.25, -0.03, -0.03, -0.03
91, 16724.60, -8893.47, -39400.71, -41721.68, 0.00, 0.00, 0.00, -61076.05, -0.03, -0.03, 0.00
92, 16729.70, -8893.07, -39414.44, -41714.86, 0.00, 0.00, 0.00, -61021.54, 0.00, -0.03, -0.03
93, 16732.43, -8896.75, -39397.79, -41711.62, 0.00, 0.00, 0.00, -60931.88, -0.03, -0.03, 0.00
94, 16724.69, -8902.68, -39390.05, -41729.77, 0.00, 0.00, 0.00, -60988.66, -0.03, -0.03, 0.00
95, 16722.08, -8902.30, -39406.14, -41738.95, 0.00, 0.00, 0.00, -61085.21, 0.00, 0.00, -0.03
96, 16718.72, -8908.31, -39421.14, -41733.39, 0.00, 0.00, 0.00, -61050.73, -0.03, 0.00, 0.00
97, 16727.24, -8908.26, -39402.55, -41722.64, 0.00, 0.00, 0.00, -60948.02, -0.03, -0.03, -0.03
98, 16722.48, -8910.99, -39389.79, -41729.41, 0.00, 0.00, 0.00, -60975.24, 0.00, -0.03, -0.03
99, 16721.18, -8907.33, -39401.56, -41735.64, 0.00, 0.00, 0.00, -61078.80, 0.00, -0.03, -0.03
100, 16725.01, -8904.42, -39414.48, -41726.41, 0.00, 0.00, 0.00, -61066.62, -0.03, 0.00, 0.00
101, 16733.99, -8899.28, -39396.54, -41711.33, 0.00, 0.00, 0.00, -60953.94, -0.03, -0.03, 0.00
102, 16736.29, -8896.60, -39374.05, -41714.70, 0.00, 0.00, 0.00, -60942.27, -0.03, 0.00, -0.03
103, 16732.69, -8897.83, -39383.73, -41727.04, 0.00, 0.00, 0.00, -61047.60, 0.00, -0.03, 0.00
104, 16734.93, -8895.01, -39400.78, -41723.42, 0.00, 0.00, 0.00, -61062.57, 0.00, -0.03, -0.03
105, 16739.71, -8891.48, -39388.40, -41708.06, 0.00, 0.00, 0.00, -60951.80, -0.03, -0.03, -0.03
106, 16741.05, -8890.99, -39366.94, -41709.16, 0.00, 0.00, 0.00, -60918.43, -0.03, 0.00, -0.03
107, 16741.23, -8886.94, -39374.36, -41720.54, 0.00, 0.00, 0.00, -61021.69, 0.00, 0.00, -0.03
108, 16739.47, -8883.07, -39394.57, -41715.28, 0.00, 0.00, 0.00, -61062.68, -0.03, -0.03, 0.00
109, 16745.44, -8880.97, -39392.29, -41698.72, 0.00, 0.00, 0.00, -60965.30, -0.03, -0.03, -0.03
110, 16750.13, -8880.55, -39371.12, -41696.39, 0.00, 0.00, 0.00, -60909.60, 0.00, -0.03, 0.00
111, 16739.00, -8885.58, -39373.85, -41712.91, 0.00, 0.00, 0.00, -61001.44, 0.00, -0.03, -0.03
112, 16740.92, -8881.89, -39390.50, -41708.22, 0.00, 0.00, 0.00, -61062.19, 0.00, -0.03, -0.03
113, 16738.80, -8889.47, -39404.40, -41704.87, 0.00, 0.00, 0.00, -60994.06, 0.00, -0.03, -0.03
114, 16745.03, -8885.58, -39378.12, -41697.38, 0.00, 0.00, 0.00, -60908.79, 0.00, -0.03, -0.03
115, 16737.86, -8887.48, -39368.75, -41706.27, 0.00, 0.00, 0.00, -60977.66, -0.03, 0.00, -0.03
116, 16731.44, -8889.09, -39387.26, -41709.56, 0.00, 0.00, 0.00, -61066.39, 0.00, 0.00, 0.00
117, 16732.54, -8893.36, -39405.21, -41704.49, 0.00, 0.00, 0.00, -61020.15, -0.03, -0.03, -0.03
118, 16737.66, -8897.58, -39394.52, -41704.38, 0.00, 0.00, 0.00, -60931.66, -0.03, -0.03, -0.03
119, 16734.62, -8900.22, -39385.32, -41714.70, 0.00, 0.00, 0.00, -60979.63, -0.03, -0.03, -0.03
120, 16731.87, -8896.71, -39399.62, -41719.71, 0.00, 0.00, 0.00, -61077.35, 0.00, -0.03, -0.03
121, 16732.07, -8895.99, -39414.37, -41714.07, 0.00, 0.00, 0.00, -61052.04, -0.03, 0.00, -0.03
122, 16727.87, -8901.34, -39404.13, -41713.58, 0.00, 0.00, 0.00, -60953.36, 0.00, -0.03, 0.00
123, 16725.99, -8904.29, -39389.92, -41728.27, 0.00, 0.00, 0.00, -60972.65, 0.00, -0.03, 0.00
124, 16722.46, -8903.73, -39403.04, -41742.93, 0.00, 0.00, 0.00, -61078.06, -0.03, -0.03, -0.03
125, 16726.05, -8898.70, -39416.99, -41735.06, 0.00, 0.00, 0.00, -61073.28, -0.03, -0.03, 0.00
126, 16730.32, -8896.96, -39404.83, -41721.77, 0.00, 0.00, 0.00, -60965.27, -0.03, -0.03, -0.03
127, 16732.81, -8895.44, -39382.23, -41724.74, 0.00, 0.00, 0.00, -60947.64, -0.03, -0.03, 0.00
128, 16732.81, -8889.09, -39384.71, -41729.03, 0.00, 0.00, 0.00, -61045.16, -0.03, -0.03, -0.03
129, 16733.95, -8887.75, -39401.74, -41719.24, 0.00, 0.00, 0.00, -61069.68, -0.03, -0.03, -0.03
130, 16738.44, -8891.43, -39396.25, -41701.96, 0.00, 0.00, 0.00, -60965.86, 0.00, 0.00, 0.00
131, 16736.72, -8896.37, -39381.22, -41707.21, 0.00, 0.00, 0.00, -60928.26, -0.03, -0.03, -0.03
132, 16733.01, -8891.59, -39382.79, -41717.70, 0.00, 0.00, 0.00, -61024.48, -0.03, -0.03, -0.03
133, 16734.53, -8889.62, -39395.29, -41712.45, 0.00, 0.00, 0.00, -61065.99, 0.00, 0.00, 0.00
134, 16737.79, -8888.68, -39396.76, -41702.52, 0.00, 0.00, 0.00, -60979.78, 0.00, 0.00, -0.03
135, 16739.73, -8886.72, -39378.39, -41700.51, 0.00, 0.00, 0.00, -60920.75, 0.00, -0.03, -0.03
136, 16738.30, -8888.30, -39375.97, -41711.46, 0.00, 0.00, 0.00, -61001.95, -0.03, 0.00, -0.03
137, 16733.16, -8888.82, -39396.98, -41715.33, 0.00, 0.00, 0.00, -61074.48, -0.03, 0.00, -0.03
138, 16727.89, -8892.78, -39405.90, -41705.16, 0.00, 0.00, 0.00, -61009.35, -0.03, 0.00, -0.03
139, 16730.35, -8898.14, -39389.96, -41703.75, 0.00, 0.00, 0.00, -60930.38, -0.03, -0.03, 0.00
140, 16724.83, -8900.49, -39387.66, -41720.04, 0.00, 0.00, 0.00, -60995.20, 0.00, -0.03, -0.03
141, 16722.64, -8895.59, -39403.13, -41723.20, 0.00, 0.00, 0.00, -61082.71, 0.00, 0.00, 0.00
142, 16723.75, -8895.68, -39415.36, -41712.82, 0.00, 0.00, 0.00, -61038.54, 0.00, -0.03, -0.03
143, 16719.42, -8897.51, -39401.25, -41708.67, 0.00, 0.00, 0.00, -60943.39, -0.03, 0.00, 0.00
144, 16716.27, -8900.20, -39391.86, -41723.75, 0.00, 0.00, 0.00, -60981.12, 0.00, -0.03, -0.03
145, 16714.21, -8898.36, -39407.38, -41734.04, 0.00, 0.00, 0.00, -61087.34, -0.03, 0.00, -0.03
146, 16719.26, -8893.58, -39419.42, -41722.79, 0.00, 0.00, 0.00, -61067.80, 0.00, -0.03, 0.00
147, 16717.74, -8899.55, -39412.43, -41720.45, 0.00, 0.00, 0.00, -60969.19, -0.03, -0.03, -0.03
148, 16710.07, -8905.09, -39403.11, -41735.33, 0.00, 0.00, 0.00, -60984.03, 0.00, -0.03, -0.03
149, 16712.35, -8904.58, -39412.43, -41747.74, 0.00, 0.00, 0.00, -61086.45, -0.03, 0.00, -0.03
150, 16717.18, -8900.38, -39424.92, -41739.51, 0.00, 0.00, 0.00, -61091.09, 0.00, 0.00, -0.03
151, 16725.56, -8900.08, -39410.17, -41721.99, 0.00, 0.00, 0.00, -60979.82, 0.00, -0.03, 0.00
152, 16719.95, -8904.87, -39390.84, -41726.88, 0.00, 0.00, 0.00, -60956.13, -0.03, -0.03, 0.00
153, 16713.63, -8908.13, -39396.71, -41736.74, 0.00, 0.00, 0.00, -61055.29, -0.03, -0.03, 0.00
154, 16720.40, -8903.48, -39406.06, -41720.22, 0.00, 0.00, 0.00, -61075.09, 0.00, -0.03, -0.03
155, 16731.35, -8898.34, -39392.67, -41694.77, 0.00, 0.00, 0.00, -60962.01, -0.03, -0.03, -0.03
156, 16732.20, -8900.71, -39365.45, -41690.67, 0.00, 0.00, 0.00, -60903.14, -0.03, -0.03, -0.03
157, 16727.20, -8898.65, -39362.23, -41699.05, 0.00, 0.00, 0.00, -60994.38, 0.00, 0.00, -0.03
158, 16728.80, -8894.70, -39379.91, -41695.95, 0.00, 0.00, 0.00, -61051.06, 0.00, -0.03, 0.00
159, 16731.96, -8894.56, -39381.05, -41683.41, 0.00, 0.00, 0.00, -60965.92, 0.00, -0.03, -0.03
160, 16733.81, -8896.40, -39361.31, -41687.10, 0.00, 0.00, 0.00, -60894.98, -0.03, -0.03, 0.00
161, 16727.06, -8897.87, -39357.38, -41708.15, 0.00, 0.00, 0.00, -60976.70, -0.03, -0.03, 0.00
162, 16719.08, -8900.11, -39374.59, -41719.80, 0.00, 0.00, 0.00, -61061.43, -0.03, 0.00, -0.03
163, 16721.65, -8900.33, -39381.34, -41711.19, 0.00, 0.00, 0.00, -60998.76, 0.00, -0.03, -0.03
164, 16722.84, -8901.67, -39367.72, -41709.56, 0.00, 0.00, 0.00, -60911.09, -0.03, -0.03, -0.03
165, 16717.49, -8903.35, -39363.63, -41720.63, 0.00, 0.00, 0.00, -60967.44, -0.03, -0.03, 0.00
166, 16708.60, -8910.88, -39395.29, -41734.04, 0.00, 0.00, 0.00, -61078.09, -0.03, -0.03, -0.03
167, 16709.13, -8911.37, -39410.01, -41718.01, 0.00, 0.00, 0.00, -61040.31, -0.03, -0.03, -0.03
168, 16709.89, -8914.81, -39394.90, -41703.75, 0.00, 0.00, 0.00, -60935.64, -0.03, 0.00, -0.03
169, 16707.79, -8914.61, -39384.35, -41709.16, 0.00, 0.00, 0.00, -60961.50, 0.00, -0.03, -0.03
170, 16708.00, -8910.66, -39400.00, -41713.76, 0.00, 0.00, 0.00, -61067.60, -0.03, -0.03, -0.03
171, 16710.63, -8911.10, -39421.01, -41705.45, 0.00, 0.00, 0.00, -61061.54, 0.00, -0.03, -0.03
172, 16707.12, -8916.09, -39414.95, -41700.71, 0.00, 0.00, 0.00, -60960.22, -0.03, -0.03, -0.03
173, 16703.44, -8918.59, -39399.51, -41716.09, 0.00, 0.00, 0.00, -60962.39, -0.03, 0.00, -0.03
174, 16700.73, -8918.35, -39407.93, -41733.70, 0.00, 0.00, 0.00, -61075.94, -0.03, 0.00, -0.03
175, 16699.44, -8918.12, -39428.34, -41737.34, 0.00, 0.00, 0.00, -61095.77, 0.00, -0.03, -0.03
176, 16700.31, -8917.99, -39423.69, -41732.25, 0.00, 0.00, 0.00, -60994.04, 0.00, -0.03, -0.03
177, 16708.82, -8913.14, -39392.96, -41733.41, 0.00, 0.00, 0.00, -60951.28, 0.00, 0.00, -0.03
178, 16703.77, -8913.96, -39392.78, -41747.20, 0.00, 0.00, 0.00, -61048.49, 0.00, -0.03, 0.00
179, 16706.81, -8910.99, -39408.56, -41743.69, 0.00, 0.00, 0.00, -61086.87, -0.03, -0.03, 0.00
180, 16712.69, -8910.95, -39402.10, -41725.63, 0.00, 0.00, 0.00, -60986.24, -0.03, 0.00, -0.03
181, 16708.87, -8913.03, -39380.49, -41720.71, 0.00, 0.00, 0.00, -60924.24, 0.00, -0.03, -0.03
182, 16710.23, -8910.57, -39373.60, -41729.07, 0.00, 0.00, 0.00, -61003.83, 0.00, -0.03, 0.00
183, 16717.23, -8905.76, -39390.14, -41727.40, 0.00, 0.00, 0.00, -61067.22, -0.03, -0.03, -0.03
184, 16722.39, -8905.54, -39395.02, -41712.00, 0.00, 0.00, 0.00, -60990.04, -0.03, 0.00, -0.03
185, 16721.63, -8909.72, -39379.04, -41705.25, 0.00, 0.00, 0.00, -60911.18, 0.00, -0.03, -0.03
186, 16715.73, -8909.87, -39370.90, -41711.98, 0.00, 0.00, 0.00, -60973.61, -0.03, -0.03, 0.00
187, 16703.93, -8913.92, -39397.88, -41719.44, 0.00, 0.00, 0.00, -61069.79, 0.00, -0.03, -0.03
188, 16704.38, -8918.59, -39409.97, -41704.49, 0.00, 0.00, 0.00, -61018.52, 0.00, 0.00, -0.03
189, 16710.19, -8919.26, -39390.28, -41691.25, 0.00, 0.00, 0.00, -60921.87, -0.03, -0.03, 0.00
190, 16702.70, -8921.81, -39378.14, -41700.62, 0.00, 0.00, 0.00, -60965.01, -0.03, -0.03, -0.03
191, 16699.57, -8920.11, -39389.11, -41708.40, 0.00, 0.00, 0.00, -61063.33, -0.03, 0.00, -0.03
192, 16693.27, -8929.99, -39409.10, -41712.76, 0.00, 0.00, 0.00, -61040.51, -0.03, -0.03, 0.00
193, 16693.67, -8931.56, -39397.27, -41705.58, 0.00, 0.00, 0.00, -60936.15, -0.03, -0.03, -0.03
194, 16692.53, -8935.69, -39383.30, -41716.20, 0.00, 0.00, 0.00, -60956.09, -0.03, 0.00, -0.03
195, 16686.76, -8935.56, -39397.74, -41730.53, 0.00, 0.00, 0.00, -61068.90, -0.03, -0.03, 0.00
196, 16694.61, -8923.42, -39411.53, -41725.77, 0.00, 0.00, 0.00, -61067.47, -0.03, 0.00, 0.00
197, 16698.94, -8924.49, -39402.53, -41720.98, 0.00, 0.00, 0.00, -60960.34, -0.03, -0.03, -0.03
198, 16695.21, -8927.53, -39383.88, -41728.16, 0.00, 0.00, 0.00, -60946.30, -0.03, 0.00, 0.00
199, 16688.77, -8930.80, -39392.64, -41741.01, 0.00, 0.00, 0.00, -61056.87, 0.00, -0.03, 0.00
200, 16690.43, -8929.81, -39411.46, -41736.25, 0.00, 0.00, 0.00, -61085.06, -0.03, -0.03, -0.03
201, 16702.14, -8921.65, -39401.96, -41718.19, 0.00, 0.00, 0.00, -60976.32, -0.03, -0.03, 0.00
202, 16695.26, -8926.77, -39384.87, -41720.54, 0.00, 0.00, 0.00, -60935.46, -0.03, 0.00, 0.00
203, 16691.52, -8927.17, -39390.68, -41730.95, 0.00, 0.00, 0.00, -61035.32, -0.03, -0.03, -0.03
204, 16697.11, -8922.28, -39410.13, -41727.93, 0.00, 0.00, 0.00, -61085.35, -0.03, -0.03, -0.03
205, 16709.07, -8913.25, -39403.38, -41708.22, 0.00, 0.00, 0.00, -60988.43, -0.03, 0.00, -0.03
206, 16710.72, -8912.24, -39380.84, -41710.39, 0.00, 0.00, 0.00, -60918.74, -0.03, -0.03, -0.03
207, 16710.81, -8910.34, -39373.31, -41724.27, 0.00, 0.00, 0.00, -60991.70, 0.00, 0.00, 0.00
208, 16709.13, -8909.63, -39390.79, -41725.95, 0.00, 0.00, 0.00, -61064.61, -0.03, 0.00, 0.00
209, 16719.35, -8902.72, -39392.98, -41710.07, 0.00, 0.00, 0.00, -60991.58, -0.03, -0.03, 0.00
210, 16718.05, -8901.89, -39375.57, -41705.00, 0.00, 0.00, 0.00, -60907.16, 0.00, -0.03, -0.03
211, 16708.55, -8909.65, -39372.89, -41720.89, 0.00, 0.00, 0.00, -60969.63, -0.03, -0.03, 0.00
212, 16710.01, -8910.30, -39390.72, -41726.13, 0.00, 0.00, 0.00, -61060.49, 0.00, -0.03, 0.00
213, 16717.34, -8909.05, -39399.95, -41711.08, 0.00, 0.00, 0.00, -61013.64, 0.00, -0.03, 0.00
214, 16717.00, -8914.30, -39386.25, -41707.93, 0.00, 0.00, 0.00, -60918.47, 0.00, -0.03, 0.00
215, 16714.03, -8915.08, -39373.85, -41714.50, 0.00, 0.00, 0.00, -60953.03, -0.03, 0.00, -0.03
216, 16709.02, -8914.46, -39386.43, -41716.54, 0.00, 0.00, 0.00, -61053.21, 0.00, -0.03, 0.00
217, 16709.58, -8919.06, -39401.41, -41709.07, 0.00, 0.00, 0.00, -61040.20, -0.03, -0.03, -0.03
218, 16715.97, -8913.23, -39382.14, -41691.63, 0.00, 0.00, 0.00, -60929.51, -0.03, -0.03, 0.00
219, 16708.89, -8916.31, -39366.74, -41698.47, 0.00, 0.00, 0.00, -60936.60, -0.03, -0.03, -0.03
220, 16699.50, -8923.51, -39382.88, -41716.87, 0.00, 0.00, 0.00, -61049.12, -0.03, 0.00, -0.03
221, 16691.46, -8927.24, -39403.60, -41718.84, 0.00, 0.00, 0.00, -61065.25, -0.03, 0.00, -0.03
222, 16698.61, -8931.22, -39397.70, -41716.82, 0.00, 0.00, 0.00, -60961.61, 0.00, -0.03, -0.03
223, 16699.57, -8931.44, -39377.04, -41724.87, 0.00, 0.00, 0.00, -60939.44, -0.03, -0.03, 0.00
224, 16693.69, -8928.83, -39382.10, -41738.77, 0.00, 0.00, 0.00, -61041.32, -0.03, -0.03, -0.03
225, 16700.11, -8922.12, -39403.46, -41736.11, 0.00, 0.00, 0.00, -61079.13, 0.00, -0.03, -0.03
226, 16709.67, -8921.16, -39402.50, -41724.89, 0.00, 0.00, 0.00, -60985.82, -0.03, -0.03, -0.03
227, 16705.54, -8924.31, -39380.13, -41725.65, 0.00, 0.00, 0.00, -60936.11, 0.00, -0.03, -0.03
228, 16705.83, -8918.21, -39370.27, -41729.05, 0.00, 0.00, 0.00, -61016.84, -0.03, -0.03, -0.03
229, 16707.93, -8915.26, -39390.70, -41727.06, 0.00, 0.00, 0.00, -61076.00, 0.00, -0.03, -0.03
230, 16713.20, -8918.66, -39397.79, -41715.57, 0.00, 0.00, 0.00, -60997.66, -0.03, 0.00, -0.03
231, 16715.73, -8915.35, -39380.71, -41710.28, 0.00, 0.00, 0.00, -60927.12, -0.03, -0.03, -0.03
232, 16710.86, -8918.10, -39377.49, -41721.56, 0.00, 0.00, 0.00, -60998.80, -0.03, 0.00, -0.03
233, 16712.49, -8915.69, -39396.58, -41720.85, 0.00, 0.00, 0.00, -61075.36, -0.03, -0.03, 0.00
234, 16714.66, -8912.18, -39402.64, -41699.12, 0.00, 0.00, 0.00, -61008.08, -0.03, -0.03, 0.00
235, 16713.81, -8913.14, -39381.11, -41686.36, 0.00, 0.00, 0.00, -60911.54, 0.00, -0.03, -0.03
236, 16710.32, -8913.52, -39370.27, -41696.53, 0.00, 0.00, 0.00, -60959.39, -0.03, 0.00, 0.00
237, 16711.50, -8907.86, -39383.19, -41701.31, 0.00, 0.00, 0.00, -61048.69, 0.00, -0.03, -0.03
238, 16714.68, -8908.11, -39395.53, -41693.91, 0.00, 0.00, 0.00, -61015.10, 0.00, -0.03, -0.03
239, 16718.14, -8910.05, -39380.15, -41688.06, 0.00, 0.00, 0.00, -60915.59, -0.03, -0.03, -0.03
240, 16712.22, -8912.31, -39367.41, -41699.48, 0.00, 0.00, 0.00, -60942.90, -0.03, -0.03, 0.00
241, 16707.01, -8912.45, -39384.78, -41715.95, 0.00, 0.00, 0.00, -61055.53, -0.03, -0.03, -0.03
242, 16707.73, -8915.33, -39403.57, -41711.73, 0.00, 0.00, 0.00, -61048.07, 0.00, -0.03, 0.00
243, 16704.87, -8922.28, -39396.89, -41704.93, 0.00, 0.00, 0.00, -60944.29, -0.03, -0.03, -0.03
244, 16705.69, -8927.04, -39382.81, -41716.49, 0.00, 0.00, 0.00, -60945.09, -0.03, -0.03, -0.03
245, 16698.56, -8927.26, -39391.13, -41729.18, 0.00, 0.00, 0.00, -61053.63, 0.00, -0.03, -0.03
246, 16700.64, -8922.21, -39410.35, -41727.38, 0.00, 0.00, 0.00, -61075.96, -0.03, -0.03, -0.03
247, 16707.66, -8920.83, -39402.48, -41716.80, 0.00, 0.00, 0.00, -60969.32, -0.03, -0.03, -0.03
248, 16709.69, -8920.00, -39381.89, -41718.99, 0.00, 0.00, 0.00, -60935.68, 0.00, 0.00, -0.03
249, 16706.70, -8914.30, -39384.13, -41730.53, 0.00, 0.00, 0.00, -61033.54, -0.03, 0.00, 0.00
250, 16705.31, -8912.06, -39399.06, -41727.40, 0.00, 0.00, 0.00, -61072.09, -0.03, 0.00, 0.00
251, 16712.94, -8911.51, -39393.92, -41711.06, 0.00, 0.00, 0.00, -60976.18, -0.03, -0.03, 0.00
252, 16713.79, -8913.85, -39371.01, -41707.55, 0.00, 0.00, 0.00, -60914.04, 0.00, -0.03, -0.03
253, 16705.51, -8912.15, -39367.50, -41720.07, 0.00, 0.00, 0.00, -61002.36, -0.03, -0.03, -0.03
254, 16705.16, -8914.12, -39395.80, -41727.71, 0.00, 0.00, 0.00, -61076.90, -0.03, -0.03, -0.03
255, 16707.91, -8916.60, -39401.90, -41714.55, 0.00, 0.00, 0.00, -61000.32, 0.00, 0.00, -0.03
0, 16707.79, -8918.10, -39378.68, -41707.26, 0.00, 0.00, 0.00, -60910.98, -0.03, 0.00, 0.00
1, 16699.97, -8922.57, -39377.49, -41722.37, 0.00, 0.00, 0.00, -60981.66, 0.00, -0.03, 0.00
2, 16700.15, -8918.86, -39394.66, -41724.09, 0.00, 0.00, 0.00, -61066.48, 0.00, 0.00, -0.03
3, 16705.27, -8914.48, -39399.78, -41706.10, 0.00, 0.00, 0.00, -61006.38, -0.03, -0.03, -0.03
4, 16705.27, -8920.71, -39387.44, -41701.31, 0.00, 0.00, 0.00, -60916.17, -0.03, 0.00, -0.03
5, 16702.18, -8928.11, -39380.62, -41714.50, 0.00, 0.00, 0.00, -60966.57, -0.03, -0.03, 0.00
6, 16696.87, -8923.35, -39396.27, -41722.97, 0.00, 0.00, 0.00, -61067.73, -0.03, -0.03, -0.03
7, 16704.31, -8916.78, -39411.02, -41712.71, 0.00, 0.00, 0.00, -61043.48, -0.03, 0.00, -0.03
8, 16706.83, -8922.08, -39397.88, -41705.43, 0.00, 0.00, 0.00, -60936.38, -0.03, -0.03, 0.00
9, 16703.75, -8921.27, -39382.01, -41713.09, 0.00, 0.00, 0.00, -60951.91, 0.00, -0.03, -0.03
10, 16695.70, -8923.35, -39395.57, -41726.66, 0.00, 0.00, 0.00, -61058.75, -0.03, -0.03, 0.00
11, 16700.13, -8922.28, -39404.16, -41714.93, 0.00, 0.00, 0.00, -61049.68, -0.03, 0.00, 0.00
12, 16698.88, -8929.32, -39395.82, -41708.91, 0.00, 0.00, 0.00, -60948.04, 0.00, -0.03, -0.03
13, 16689.35, -8937.19, -39382.14, -41722.97, 0.00, 0.00, 0.00, -60942.05, 0.00, -0.03, -0.03
14, 16685.22, -8936.05, -39385.38, -41736.23, 0.00, 0.00, 0.00, -61047.53, -0.03, 0.00, 0.00
15, 16692.48, -8931.02, -39400.40, -41730.84, 0.00, 0.00, 0.00, -61074.35, 0.00, -0.03, 0.00
16, 16697.11, -8929.54, -39395.04, -41718.23, 0.00, 0.00, 0.00, -60971.91, 0.00, -0.03, -0.03
17, 16694.65, -8932.90, -39376.22, -41719.17, 0.00, 0.00, 0.00, -60928.59, -0.03, -0.03, -0.03
18, 16688.75, -8932.03, -39380.46, -41732.54, 0.00, 0.00, 0.00, -61022.63, -0.03, 0.00, -0.03
19, 16699.17, -8922.91, -39392.73, -41726.82, 0.00, 0.00, 0.00, -61066.95, -0.03, -0.03, 0.00
20, 16702.77, -8922.06, -39393.61, -41714.32, 0.00, 0.00, 0.00, -60979.63, 0.00, -0.03, 0.00
21, 16708.17, -8919.96, -39371.41, -41708.55, 0.00, 0.00, 0.00, -60911.43, -0.03, 0.00, -0.03
22, 16705.02, -8915.71, -39363.14, -41714.99, 0.00, 0.00, 0.00, -60985.37, 0.00, -0.03, -0.03
23, 16705.67, -8913.12, -39380.09, -41715.53, 0.00, 0.00, 0.00, -61058.75, 0.00, -0.03, 0.00
24, 16709.52, -8912.18, -39385.14, -41701.02, 0.00, 0.00, 0.00, -60987.38, -0.03, -0.03, 0.00
25, 16712.98, -8913.96, -39367.10, -41693.22, 0.00, 0.00, 0.00, -60900.90, 0.00, -0.03, -0.03
26, 16710.01, -8913.74, -39359.05, -41699.05, 0.00, 0.00, 0.00, -60958.93, 0.00, -0.03, -0.03
27, 16708.85, -8912.74, -39380.33, -41706.99, 0.00, 0.00, 0.00, -61051.93, 0.00, 0.00, 0.00
28, 16709.96, -8912.62, -39395.98, -41700.39, 0.00, 0.00, 0.00, -61012.23, 0.00, -0.03, -0.03
29, 16708.40, -8915.93, -39380.35, -41692.75, 0.00, 0.00, 0.00, -60911.16, -0.03, -0.03, 0.00
30, 16712.69, -8914.61, -39365.09, -41702.23, 0.00, 0.00, 0.00, -60942.01, -0.03, -0.03, -0.03
31, 16705.16, -8920.74, -39382.74, -41717.63, 0.00, 0.00, 0.00, -61049.25, -0.03, -0.03, -0.03
32, 16702.03, -8924.76, -39404.92, -41716.13, 0.00, 0.00, 0.00, -61040.67, -0.03, 0.00, -0.03
33, 16711.30, -8918.99, -39390.79, -41702.30, 0.00, 0.00, 0.00, -60932.89, 0.00, -0.03, -0.03
34, 16703.21, -8924.22, -39383.01, -41716.82, 0.00, 0.00, 0.00, -60943.44, -0.03, 0.00, -0.03
35, 16698.05, -8926.06, -39396.87, -41732.07, 0.00, 0.00, 0.00, -61055.33, -0.03, 0.00, -0.03
36, 16697.42, -8927.42, -39416.45, -41726.86, 0.00, 0.00, 0.00, -61069.79, -0.03, 0.00, -0.03
37, 16696.55, -8933.19, -39412.88, -41717.83, 0.00, 0.00, 0.00, -60970.77, 0.00, 0.00, -0.03
38, 16695.37, -8931.35, -39389.23, -41721.07, 0.00, 0.00, 0.00, -60943.97, -0.03, -0.03, -0.03
39, 16690.14, -8930.33, -39397.65, -41736.50, 0.00, 0.00, 0.00, -61049.65, -0.03, 0.00, -0.03
40, 16695.28, -8927.26, -39417.14, -41736.34, 0.00, 0.00, 0.00, -61086.71, -0.03, -0.03, -0.03
41, 16695.43, -8926.37, -39414.42, -41727.78, 0.00, 0.00, 0.00, -60995.14, -0.03, 0.00, -0.03
42, 16694.14, -8928.00, -39395.04, -41731.64, 0.00, 0.00, 0.00, -60947.91, -0.03, 0.00, 0.00
43, 16690.52, -8923.00, -39392.31, -41741.64, 0.00, 0.00, 0.00, -61032.93, 0.00, -0.03, -0.03
44, 16689.18, -8920.78, -39412.16, -41742.06, 0.00, 0.00, 0.00, -61090.22, -0.03, -0.03, 0.00
45, 16692.77, -8920.54, -39414.66, -41727.17, 0.00, 0.00, 0.00, -61007.48, -0.03, -0.03, 0.00
46, 16695.14, -8920.71, -39393.20, -41722.82, 0.00, 0.00, 0.00, -60933.51, 0.00, -0.03, -0.03
47, 16695.12, -8916.83, -39385.16, -41733.03, 0.00, 0.00, 0.00, -61001.55, -0.03, -0.03, -0.03
48, 16698.74, -8908.60, -39401.79, -41731.40, 0.00, 0.00, 0.00, -61079.20, -0.03, 0.00, -0.03
49, 16709.47, -8902.39, -39408.56, -41712.76, 0.00, 0.00, 0.00, -61014.16, -0.03, -0.03, -0.03
50, 16707.35, -8906.03, -39391.06, -41706.54, 0.00, 0.00, 0.00, -60919.70, 0.00, -0.03, -0.03
51, 16704.22, -8905.47, -39382.39, -41719.29, 0.00, 0.00, 0.00, -60972.85, -0.03, -0.03, -0.03
52, 16706.16, -8895.66, -39395.93, -41720.74, 0.00, 0.00, 0.00, -61064.56, -0.03, -0.03, -0.03
53, 16711.10, -8894.92, -39405.16, -41705.31, 0.00, 0.00, 0.00, -61020.35, -0.03, -0.03, 0.00
54, 16716.40, -8895.32, -39389.90, -41694.88, 0.00, 0.00, 0.00, -60913.53, -0.03, -0.03, 0.00
55, 16717.58, -8894.23, -39377.36, -41703.82, 0.00, 0.00, 0.00, -60939.61, -0.03, -0.03, -0.03
56, 16714.88, -8896.35, -39392.96, -41717.20, 0.00, 0.00, 0.00, -61047.48, -0.03, 0.00, -0.03
57, 16712.31, -8898.74, -39409.97, -41713.76, 0.00, 0.00, 0.00, -61035.75, -0.03, 0.00, -0.03
58, 16713.05, -8900.33, -39399.13, -41701.65, 0.00, 0.00, 0.00, -60931.05, -0.03, 0.00, 0.00
59, 16703.95, -8911.22, -39383.08, -41708.40, 0.00, 0.00, 0.00, -60929.00, -0.03, 0.00, -0.03
60, 16696.02, -8913.99, -39391.42, -41721.92, 0.00, 0.00, 0.00, -61036.38, 0.00, -0.03, 0.00
61, 16699.57, -8915.35, -39405.45, -41716.24, 0.00, 0.00, 0.00, -61048.31, 0.00, -0.03, -0.03
62, 16702.50, -8917.59, -39399.69, -41704.80, 0.00, 0.00, 0.00, -60945.58, -0.03, 0.00, 0.00
63, 16699.66, -8916.69, -39382.07, -41710.45, 0.00, 0.00, 0.00, -60918.18, -0.03, -0.03, -0.03
64, 16696.06, -8911.28, -39386.03, -41720.85, 0.00, 0.00, 0.00, -61022.59, 0.00, -0.03, -0.03
65, 16700.91, -8909.72, -39411.31, -41725.14, 0.00, 0.00, 0.00, -61075.13, 0.00, -0.03, -0.03
66, 16699.68, -8914.34, -39417.48, -41722.73, 0.00, 0.00, 0.00, -60990.24, 0.00, -0.03, -0.03
67, 16698.90, -8909.61, -39391.91, -41718.79, 0.00, 0.00, 0.00, -60927.81, 0.00, -0.03, -0.03
68, 16696.06, -8913.63, -39396.54, -41738.28, 0.00, 0.00, 0.00, -61019.21, -0.03, 0.00, -0.03
69, 16697.87, -8909.99, -39417.12, -41741.59, 0.00, 0.00, 0.00, -61084.95, -0.03, -0.03, 0.00
70, 16706.83, -8901.07, -39417.23, -41722.23, 0.00, 0.00, 0.00, -61004.57, -0.03, 0.00, -0.03
71, 16706.39, -8900.51, -39396.22, -41713.70, 0.00, 0.00, 0.00, -60923.19, -0.03, -0.03, -0.03
72, 16705.58, -8903.08, -39388.38, -41722.46, 0.00, 0.00, 0.00, -60986.96, 0.00, -0.03, -0.03
73, 16709.20, -8899.44, -39403.13, -41723.91, 0.00, 0.00, 0.00, -61064.45, 0.00, 0.00, -0.03
74, 16718.30, -8892.73, -39410.01, -41708.93, 0.00, 0.00, 0.00, -61005.93, -0.03, -0.03, -0.03
75, 16714.81, -8896.80, -39396.00, -41704.60, 0.00, 0.00, 0.00, -60913.98, 0.00, -0.03, -0.03
76, 16708.89, -8896.64, -39385.09, -41715.64, 0.00, 0.00, 0.00, -60957.16, -0.03, -0.03, -0.03
77, 16716.22, -8892.80, -39401.90, -41723.53, 0.00, 0.00, 0.00, -61057.21, -0.03, 0.00, -0.03
78, 16716.80, -8892.57, -39415.15, -41714.75, 0.00, 0.00, 0.00, -61027.17, -0.03, -0.03, 0.00
79, 16716.76, -8891.32, -39397.34, -41704.80, 0.00, 0.00, 0.00, -60918.54, 0.00, -0.03, 0.00
80, 16715.33, -8891.79, -39379.68, -41712.29, 0.00, 0.00, 0.00, -60933.67, -0.03, -0.03, -0.03
81, 16704.75, -8899.53, -39394.59, -41726.64, 0.00, 0.00, 0.00, -61042.21, -0.03, 0.00, 0.00
82, 16704.89, -8903.75, -39416.65, -41724.20, 0.00, 0.00, 0.00, -61044.80, 0.00, -0.03, -0.03
83, 16703.88, -8909.63, -39412.92, -41718.77, 0.00, 0.00, 0.00, -60948.46, -0.03, 0.00, -0.03
84, 16701.83, -8914.46, -39392.91, -41724.20, 0.00, 0.00, 0.00, -60936.64, 0.00, 0.00, -0.03
85, 16702.59, -8915.69, -39397.65, -41735.42, 0.00, 0.00, 0.00, -61039.35, 0.00, 0.00, 0.00
86, 16700.73, -8917.05, -39416.14, -41735.33, 0.00, 0.00, 0.00, -61067.27, 0.00, 0.00, -0.03
87, 16699.12, -8922.97, -39408.49, -41726.95, 0.00, 0.00, 0.00, -60966.04, -0.03, 0.00, -0.03
88, 16697.47, -8927.89, -39388.06, -41734.19, 0.00, 0.00, 0.00, -60926.18, 0.00, -0.03, -0.03
89, 16692.77, -8931.38, -39393.96, -41749.37, 0.00, 0.00, 0.00, -61028.62, -0.03, -0.03, -0.03
90, 16688.06, -8932.92, -39418.20, -41750.15, 0.00, 0.00, 0.00, -61081.32, 0.00, -0.03, -0.03
91, 16694.58, -8930.44, -39420.77, -41737.16, 0.00, 0.00, 0.00, -60993.17, -0.03, -0.03, -0.03
92, 16695.72, -8930.88, -39402.53, -41736.27, 0.00, 0.00, 0.00, -60931.01, -0.03, 0.00, 0.00
93, 16693.73, -8925.59, -39400.34, -41746.13, 0.00, 0.00, 0.00, -61009.66, -0.03, 0.00, 0.00
94, 16698.12, -8921.34, -39419.11, -41746.93, 0.00, 0.00, 0.00, -61079.92, 0.00, 0.00, -0.03
95, 16699.23, -8916.94, -39420.68, -41730.91, 0.00, 0.00, 0.00, -61005.44, -0.03, -0.03, 0.00
96, 16708.51, -8912.69, -39392.09, -41718.57, 0.00, 0.00, 0.00, -60908.93, -0.03, 0.00, -0.03
97, 16703.55, -8916.78, -39385.65, -41731.82, 0.00, 0.00, 0.00, -60968.65, -0.03, -0.03, -0.03
98, 16694.81, -8917.88, -39407.20, -41739.00, 0.00, 0.00, 0.00, -61066.66, -0.03, -0.03, -0.03
99, 16701.42, -8915.78, -39415.22, -41721.92, 0.00, 0.00, 0.00, -61015.03, -0.03, -0.03, -0.03
100, 16712.04, -8913.36, -39393.68, -41706.39, 0.00, 0.00, 0.00, -60909.66, -0.03, -0.03, 0.00
101, 16709.87, -8912.74, -39382.12, -41714.99, 0.00, 0.00, 0.00, -60943.93, 0.00, 0.00, -0.03
102, 16707.97, -8910.19, -39398.66, -41723.71, 0.00, 0.00, 0.00, -61049.21, 0.00, -0.03, 0.00
103, 16712.53, -8902.74, -39412.41, -41713.18, 0.00, 0.00, 0.00, -61032.46, 0.00, -0.03, -0.03
104, 16710.14, -8908.56, -39399.75, -41703.37, 0.00, 0.00, 0.00, -60924.01, 0.00, 0.00, -0.03
105, 16706.43, -8911.73, -39382.48, -41709.16, 0.00, 0.00, 0.00, -60927.97, -0.03, -0.03, -0.03
106, 16703.86, -8907.68, -39388.02, -41715.53, 0.00, 0.00, 0.00, -61027.43, -0.03, -0.03, -0.03
107, 16708.08, -8905.36, -39406.97, -41708.38, 0.00, 0.00, 0.00, -61034.61, 0.00, -0.03, -0.03
108, 16708.29, -8905.81, -39402.53, -41697.34, 0.00, 0.00, 0.00, -60931.10, 0.00, 0.00, 0.00
109, 16699.14, -8913.52, -39391.64, -41707.28, 0.00, 0.00, 0.00, -60914.34, -0.03, 0.00, -0.03
110, 16693.02, -8917.21, -39399.89, -41720.98, 0.00, 0.00, 0.00, -61026.34, -0.03, -0.03, -0.03
111, 16695.39, -8910.23, -39414.13, -41714.77, 0.00, 0.00, 0.00, -61058.84, 0.00, 0.00, 0.00
112, 16699.01, -8907.84, -39407.55, -41698.27, 0.00, 0.00, 0.00, -60957.00, 0.00, -0.03, 0.00
113, 16698.56, -8911.24, -39388.40, -41701.67, 0.00, 0.00, 0.00, -60908.93, -0.03, -0.03, 0.00
114, 16692.37, -8912.67, -39388.71, -41718.79, 0.00, 0.00, 0.00, -61003.09, -0.03, -0.03, 0.00
115, 16683.43, -8914.75, -39411.96, -41725.03, 0.00, 0.00, 0.00, -61066.77, 0.00, 0.00, -0.03
116, 16689.58, -8916.00, -39417.32, -41715.66, 0.00, 0.00, 0.00, -60988.27, 0.00, -0.03, 0.00
117, 16688.01, -8921.74, -39397.68, -41716.22, 0.00, 0.00, 0.00, -60914.92, -0.03, -0.03, -0.03
118, 16682.04, -8927.82, -39393.99, -41736.29, 0.00, 0.00, 0.00, -60992.52, -0.03, 0.00, -0.03
119, 16682.36, -8925.07, -39410.80, -41743.09, 0.00, 0.00, 0.00, -61071.60, -0.03, 0.00, 0.00
120, 16678.49, -8927.31, -39419.91, -41732.70, 0.00, 0.00, 0.00, -61013.89, -0.03, -0.03, -0.03
121, 16679.47, -8929.61, -39404.87, -41728.40, 0.00, 0.00, 0.00, -60929.82, -0.03, 0.00, -0.03
122, 16684.37, -8926.39, -39393.72, -41737.41, 0.00, 0.00, 0.00, -60977.66, 0.00, -0.03, 0.00
123, 16679.29, -8923.15, -39414.33, -41746.38, 0.00, 0.00, 0.00, -61075.36, -0.03, 0.00, -0.03
124, 16689.15, -8912.62, -39421.55, -41730.04, 0.00, 0.00, 0.00, -61030.63, 0.00, 0.00, 0.00
125, 16694.32, -8913.18, -39406.84, -41720.40, 0.00, 0.00, 0.00, -60924.82, -0.03, 0.00, -0.03
126, 16687.39, -8916.83, -39390.39, -41726.04, 0.00, 0.00, 0.00, -60945.20, 0.00, -0.03, 0.00
127, 16685.69, -8913.81, -39405.01, -41734.30, 0.00, 0.00, 0.00, -61050.39, -0.03, -0.03, -0.03
128, 16694.61, -8913.79, -39423.47, -41726.95, 0.00, 0.00, 0.00, -61043.89, -0.03, -0.03, -0.03
129, 16698.18, -8911.19, -39410.71, -41709.09, 0.00, 0.00, 0.00, -60934.54, 0.00, -0.03, -0.03
130, 16702.86, -8904.53, -39388.67, -41706.77, 0.00, 0.00, 0.00, -60925.24, -0.03, 0.00, 0.00
131, 16696.04, -8909.38, -39400.63, -41724.13, 0.00, 0.00, 0.00, -61036.11, 0.00, 0.00, 0.00
132, 16695.37, -8911.17, -39416.92, -41720.00, 0.00, 0.00, 0.00, -61055.11, -0.03, -0.03, -0.03
133, 16698.45, -8911.53, -39403.93, -41701.74, 0.00, 0.00, 0.00, -60947.19, -0.03, -0.03, 0.00
134, 16696.28, -8915.19, -39383.14, -41704.80, 0.00, 0.00, 0.00, -60913.51, -0.03, 0.00, 0.00
135, 16690.65, -8917.09, -39390.03, -41721.79, 0.00, 0.00, 0.00, -61017.27, -0.03, 0.00, -0.03
136, 16692.80, -8909.23, -39408.85, -41720.65, 0.00, 0.00, 0.00, -61060.11, 0.00, -0.03, 0.00
137, 16691.50, -8907.44, -39408.79, -41706.70, 0.00, 0.00, 0.00, -60969.45, -0.03, 0.00, 0.00
138, 16693.71, -8906.10, -39388.15, -41702.12, 0.00, 0.00, 0.00, -60910.09, -0.03, -0.03, 0.00
139, 16689.42, -8908.29, -39391.11, -41717.20, 0.00, 0.00, 0.00, -60996.61, 0.00, -0.03, -0.03
140, 16684.15, -8910.57, -39416.90, -41725.03, 0.00, 0.00, 0.00, -61068.65, -0.03, -0.03, -0.03
141, 16689.73, -8910.72, -39421.86, -41711.82, 0.00, 0.00, 0.00, -60993.59, -0.03, -0.03, -0.03
142, 16688.82, -8913.07, -39407.78, -41714.59, 0.00, 0.00, 0.00, -60916.61, -0.03, 0.00, -0.03
143, 16682.67, -8915.86, -39404.83, -41732.20, 0.00, 0.00, 0.00, -60989.79, -0.03, -0.03, -0.03
144, 16685.67, -8914.05, -39421.14, -41737.16, 0.00, 0.00, 0.00, -61075.38, -0.03, 0.00, 0.00
145, 16688.50, -8913.29, -39434.18, -41730.21, 0.00, 0.00, 0.00, -61028.13, -0.03, -0.03, -0.03
146, 16696.71, -8913.47, -39416.79, -41723.60, 0.00, 0.00, 0.00, -60930.43, -0.03, 0.00, 0.00
147, 16691.37, -8918.68, -39408.34, -41736.65, 0.00, 0.00, 0.00, -60975.13, 0.00, -0.03, 0.00
148, 16690.40, -8912.71, -39420.56, -41739.45, 0.00, 0.00, 0.00, -61066.28, -0.03, -0.03, -0.03
149, 16698.38, -8907.10, -39431.52, -41725.43, 0.00, 0.00, 0.00, -61035.79, -0.03, -0.03, -0.03
150, 16698.14, -8909.74, -39418.73, -41717.03, 0.00, 0.00, 0.00, -60932.69, 0.00, -0.03, -0.03
151, 16697.13, -8910.66, -39401.00, -41725.77, 0.00, 0.00, 0.00, -60944.40, 0.00, -0.03, -0.03
152, 16697.58, -8906.05, -39406.79, -41732.32, 0.00, 0.00, 0.00, -61049.27, -0.03, 0.00, -0.03
153, 16694.07, -8905.38, -39421.08, -41725.48, 0.00, 0.00, 0.00, -61046.57, 0.00, -0.03, 0.00
154, 16694.21, -8910.79, -39414.57, -41717.65, 0.00, 0.00, 0.00, -60942.14, -0.03, 0.00, -0.03
155, 16694.58, -8911.42, -39394.39, -41721.23, 0.00, 0.00, 0.00, -60928.82, -0.03, -0.03, -0.03
156, 16686.63, -8913.65, -39400.09, -41731.18, 0.00, 0.00, 0.00, -61035.37, -0.03, -0.03, -0.03
157, 16683.05, -8915.15, -39418.60, -41726.59, 0.00, 0.00, 0.00, -61060.43, 0.00, -0.03, 0.00
158, 16685.35, -8916.65, -39416.27, -41715.11, 0.00, 0.00, 0.00, -60962.08, -0.03, -0.03, 0.00
159, 16688.15, -8921.47, -39395.82, -41720.25, 0.00, 0.00, 0.00, -60918.92, -0.03, -0.03, 0.00
160, 16681.80, -8920.36, -39399.15, -41737.32, 0.00, 0.00, 0.00, -61018.63, 0.00, 0.00, 0.00
161, 16679.74, -8920.45, -39420.56, -41738.95, 0.00, 0.00, 0.00, -61071.25, -0.03, -0.03, -0.03
162, 16687.30, -8917.59, -39421.34, -41724.36, 0.00, 0.00, 0.00, -60981.91, 0.00, -0.03, 0.00
163, 16686.02, -8917.43, -39405.43, -41725.27, 0.00, 0.00, 0.00, -60920.97, -0.03, -0.03, -0.03
164, 16683.99, -8915.46, -39400.92, -41737.05, 0.00, 0.00, 0.00, -60998.89, -0.03, 0.00, -0.03
165, 16676.61, -8920.42, -39425.04, -41742.60, 0.00, 0.00, 0.00, -61076.27, 0.00, -0.03, -0.03
166, 16677.37, -8924.27, -39433.53, -41731.20, 0.00, 0.00, 0.00, -61010.47, -0.03, -0.03, -0.03
167, 16682.22, -8918.82, -39410.57, -41723.57, 0.00, 0.00, 0.00, -60924.77, 0.00, -0.03, -0.03
168, 16675.00, -8920.29, -39405.52, -41737.05, 0.00, 0.00, 0.00, -60986.53, -0.03, -0.03, -0.03
169, 16673.15, -8925.03, -39424.39, -41746.48, 0.00, 0.00, 0.00, -61078.53, -0.03, -0.03, 0.00
170, 16676.66, -8921.05, -39433.50, -41735.76, 0.00, 0.00, 0.00, -61034.10, 0.00, 0.00, -0.03
171, 16689.00, -8916.45, -39414.71, -41725.65, 0.00, 0.00, 0.00, -60935.46, 0.00, -0.03, 0.00
172, 16683.36, -8917.52, -39401.32, -41735.60, 0.00, 0.00, 0.00, -60967.13, -0.03, 0.00, 0.00
173, 16678.60, -8916.89, -39413.23, -41744.09, 0.00, 0.00, 0.00, -61065.25, -0.03, -0.03, 0.00
174, 16685.08, -8913.23, -39425.04, -41733.41, 0.00, 0.00, 0.00, -61043.44, -0.03, 0.00, -0.03
175, 16685.78, -8916.63, -39412.90, -41725.05, 0.00, 0.00, 0.00, -60937.45, 0.00, -0.03, 0.00
176, 16684.73, -8922.57, -39397.00, -41734.48, 0.00, 0.00, 0.00, -60944.76, 0.00, 0.00, -0.03
177, 16682.60, -8917.52, -39405.50, -41743.25, 0.00, 0.00, 0.00, -61050.57, -0.03, 0.00, -0.03
178, 16684.79, -8915.60, -39422.13, -41734.82, 0.00, 0.00, 0.00, -61056.56, -0.03, 0.00, -0.03
179, 16690.52, -8913.76, -39412.61, -41720.54, 0.00, 0.00, 0.00, -60947.46, -0.03, -0.03, -0.03
180, 16688.46, -8910.79, -39389.52, -41719.95, 0.00, 0.00, 0.00, -60920.57, -0.03, -0.03, -0.03
181, 16677.64, -8915.46, -39399.04, -41735.38, 0.00, 0.00, 0.00, -61027.43, -0.03, -0.03, -0.03
182, 16682.65, -8914.59, -39419.29, -41731.04, 0.00, 0.00, 0.00, -61064.85, -0.03, -0.03, 0.00
183, 16686.94, -8914.32, -39416.32, -41716.40, 0.00, 0.00, 0.00, -60967.22, -0.03, -0.03, 0.00
184, 16686.05, -8916.94, -39396.71, -41716.27, 0.00, 0.00, 0.00, -60916.14, 0.00, -0.03, -0.03
185, 16682.98, -8916.36, -39394.64, -41727.00, 0.00, 0.00, 0.00, -61004.77, 0.00, 0.00, -0.03
186, 16681.13, -8914.39, -39414.75, -41728.45, 0.00, 0.00, 0.00, -61068.16, -0.03, 0.00, -0.03
187, 16688.73, -8910.30, -39418.46, -41715.24, 0.00, 0.00, 0.00, -60987.31, 0.00, -0.03, 0.00
188, 16685.08, -8914.46, -39401.92, -41716.33, 0.00, 0.00, 0.00, -60919.92, -0.03, -0.03, -0.03
189, 16674.49, -8920.78, -39400.60, -41730.93, 0.00, 0.00, 0.00, -60998.45, -0.03, 0.00, 0.00
190, 16677.71, -8918.03, -39416.29, -41731.76, 0.00, 0.00, 0.00, -61075.16, 0.00, 0.00, -0.03
191, 16684.73, -8917.74, -39420.12, -41719.44, 0.00, 0.00, 0.00, -61012.21, -0.03, 0.00, -0.03
192, 16685.76, -8921.63, -39402.61, -41715.86, 0.00, 0.00, 0.00, -60922.89, -0.03, 0.00, -0.03
193, 16682.58, -8922.59, -39394.21, -41729.27, 0.00, 0.00, 0.00, -60975.73, -0.03, 0.00, 0.00
194, 16676.93, -8924.02, -39407.78, -41738.08, 0.00, 0.00, 0.00, -61070.26, -0.03, 0.00, -0.03
195, 16679.07, -8923.64, -39421.34, -41732.29, 0.00, 0.00, 0.00, -61035.84, -0.03, -0.03, -0.03
196, 16684.10, -8924.76, -39409.05, -41725.81, 0.00, 0.00, 0.00, -60934.00, 0.00, 0.00, -0.03
197, 16683.03, -8923.53, -39394.46, -41734.55, 0.00, 0.00, 0.00, -60958.21, -0.03, 0.00, 0.00
198, 16678.49, -8923.29, -39409.10, -41744.74, 0.00, 0.00, 0.00, -61067.24, -0.03, -0.03, 0.00
199, 16676.14, -8926.15, -39428.05, -41737.66, 0.00, 0.00, 0.00, -61059.42, -0.03, 0.00, -0.03
200, 16677.82, -8930.13, -39416.12, -41726.50, 0.00, 0.00, 0.00, -60948.76, -0.03, -0.03, -0.03
201, 16681.29, -8930.50, -39392.40, -41729.72, 0.00, 0.00, 0.00, -60939.79, 0.00, -0.03, -0.03
202, 16673.87, -8926.37, -39401.03, -41738.24, 0.00, 0.00, 0.00, -61047.29, 0.00, 0.00, 0.00
203, 16673.22, -8923.98, -39419.69, -41728.43, 0.00, 0.00, 0.00, -61060.76, -0.03, -0.03, -0.03
204, 16678.98, -8922.97, -39413.79, -41712.42, 0.00, 0.00, 0.00, -60953.63, -0.03, -0.03, -0.03
205, 16684.86, -8918.35, -39394.73, -41716.27, 0.00, 0.00, 0.00, -60922.23, -0.03, 0.00, -0.03
206, 16685.60, -8914.03, -39398.39, -41730.28, 0.00, 0.00, 0.00, -61022.76, -0.03, -0.03, 0.00
207, 16682.87, -8916.18, -39416.20, -41728.71, 0.00, 0.00, 0.00, -61068.45, -0.03, -0.03, 0.00
208, 16684.15, -8921.25, -39415.15, -41717.32, 0.00, 0.00, 0.00, -60976.63, -0.03, -0.03, 0.00
209, 16691.75, -8913.38, -39393.14, -41713.32, 0.00, 0.00, 0.00, -60915.72, -0.03, 0.00, -0.03
210, 16688.88, -8914.12, -39393.43, -41725.27, 0.00, 0.00, 0.00, -61002.40, -0.03, 0.00, -0.03
211, 16680.46, -8917.88, -39411.89, -41727.78, 0.00, 0.00, 0.00, -61066.80, 0.00, -0.03, -0.03
212, 16687.10, -8914.70, -39415.07, -41713.32, 0.00, 0.00, 0.00, -60988.99, -0.03, -0.03, -0.03
213, 16684.68, -8914.01, -39399.39, -41709.96, 0.00, 0.00, 0.00, -60914.92, 0.00, -0.03, -0.03
214, 16680.08, -8918.30, -39399.11, -41728.47, 0.00, 0.00, 0.00, -60987.92, 0.00, -0.03, -0.03
215, 16675.65, -8918.84, -39418.95, -41735.58, 0.00, 0.00, 0.00, -61076.36, -0.03, 0.00, -0.03
216, 16672.30, -8925.86, -39431.98, -41726.61, 0.00, 0.00, 0.00, -61024.60, -0.03, 0.00, -0.03
217, 16673.87, -8925.77, -39416.85, -41722.28, 0.00, 0.00, 0.00, -60930.45, 0.00, -0.03, -0.03
218, 16670.71, -8925.65, -39408.67, -41736.43, 0.00, 0.00, 0.00, -60978.64, -0.03, -0.03, -0.03
219, 16671.29, -8926.59, -39427.83, -41749.28, 0.00, 0.00, 0.00, -61085.86, 0.00, -0.03, -0.03
220, 16676.39, -8918.90, -39440.75, -41741.30, 0.00, 0.00, 0.00, -61057.21, 0.00, -0.03, -0.03
221, 16682.94, -8920.65, -39427.02, -41733.48, 0.00, 0.00, 0.00, -60956.04, -0.03, -0.03, 0.00
222, 16682.54, -8920.33, -39406.19, -41736.83, 0.00, 0.00, 0.00, -60960.74, -0.03, -0.03, -0.03
223, 16677.55, -8918.95, -39417.59, -41745.03, 0.00, 0.00, 0.00, -61066.19, -0.03, -0.03, -0.03
224, 16683.68, -8917.00, -39434.67, -41735.09, 0.00, 0.00, 0.00, -61067.31, -0.03, -0.03, -0.03
225, 16683.25, -8917.88, -39424.72, -41720.16, 0.00, 0.00, 0.00, -60959.73, 0.00, 0.00, -0.03
226, 16681.31, -8918.03, -39403.49, -41722.79, 0.00, 0.00, 0.00, -60942.45, 0.00, -0.03, -0.03
227, 16677.60, -8916.49, -39409.72, -41735.58, 0.00, 0.00, 0.00, -61044.64, -0.03, -0.03, -0.03
228, 16677.04, -8910.54, -39427.02, -41729.12, 0.00, 0.00, 0.00, -61070.15, -0.03, -0.03, -0.03
229, 16686.25, -8911.17, -39414.13, -41709.00, 0.00, 0.00, 0.00, -60959.84, 0.00, -0.03, 0.00
230, 16681.71, -8918.52, -39395.21, -41713.25, 0.00, 0.00, 0.00, -60917.78, -0.03, -0.03, -0.03
231, 16674.42, -8919.44, -39394.93, -41725.92, 0.00, 0.00, 0.00, -61011.66, -0.03, -0.03, -0.03
232, 16677.64, -8915.10, -39412.63, -41722.46, 0.00, 0.00, 0.00, -61063.18, 0.00, -0.03, 0.00
233, 16683.19, -8914.86, -39411.29, -41707.26, 0.00, 0.00, 0.00, -60972.52, 0.00, 0.00, -0.03
234, 16678.18, -8919.11, -39389.67, -41704.35, 0.00, 0.00, 0.00, -60903.70, 0.00, -0.03, -0.03
235, 16670.71, -8923.20, -39389.23, -41719.42, 0.00, 0.00, 0.00, -60985.50, -0.03, 0.00, 0.00
236, 16668.68, -8925.10, -39409.57, -41724.60, 0.00, 0.00, 0.00, -61058.86, 0.00, 0.00, -0.03
237, 16678.38, -8919.46, -39415.60, -41711.41, 0.00, 0.00, 0.00, -60991.52, 0.00, -0.03, -0.03
238, 16674.04, -8919.73, -39401.96, -41709.52, 0.00, 0.00, 0.00, -60911.79, 0.00, -0.03, 0.00
239, 16671.23, -8921.65, -39400.34, -41722.82, 0.00, 0.00, 0.00, -60977.25, -0.03, 0.00, 0.00
240, 16668.61, -8920.36, -39422.51, -41729.77, 0.00, 0.00, 0.00, -61073.70, -0.03, 0.00, -0.03
241, 16667.38, -8924.89, -39441.84, -41726.44, 0.00, 0.00, 0.00, -61036.27, 0.00, 0.00, -0.03
242, 16666.38, -8932.03, -39425.66, -41721.25, 0.00, 0.00, 0.00, -60939.28, 0.00, -0.03, -0.03
243, 16662.31, -8933.41, -39414.02, -41733.21, 0.00, 0.00, 0.00, -60975.02, 0.00, -0.03, -0.03
244, 16660.74, -8936.88, -39432.92, -41749.61, 0.00, 0.00, 0.00, -61084.57, -0.03, 0.00, 0.00
245, 16665.68, -8935.18, -39445.13, -41740.59, 0.00, 0.00, 0.00, -61063.13, 0.00, 0.00, -0.03
246, 16670.31, -8933.92, -39431.65, -41731.06, 0.00, 0.00, 0.00, -60955.15, 0.00, -0.03, -0.03
247, 16671.85, -8930.75, -39414.66, -41740.96, 0.00, 0.00, 0.00, -60958.52, 0.00, -0.03, 0.00
248, 16670.20, -8926.26, -39426.13, -41754.46, 0.00, 0.00, 0.00, -61064.50, -0.03, -0.03, -0.03
249, 16677.06, -8924.54, -39442.58, -41747.34, 0.00, 0.00, 0.00, -61073.52, -0.03, -0.03, -0.03
250, 16684.30, -8921.34, -39428.68, -41729.27, 0.00, 0.00, 0.00, -60962.39, -0.03, 0.00, 0.00
251, 16679.12, -8923.87, -39408.14, -41730.97, 0.00, 0.00, 0.00, -60937.38, 0.00, -0.03, 0.00
252, 16676.08, -8924.20, -39413.88, -41743.49, 0.00, 0.00, 0.00, -61040.42, 0.00, -0.03, 0.00
253, 16681.17, -8919.35, -39432.01, -41740.23, 0.00, 0.00, 0.00, -61075.11, -0.03, -0.03, -0.03
254, 16688.88, -8913.09, -39424.14, -41723.39, 0.00, 0.00, 0.00, -60974.55, -0.03, -0.03, 0.00
255, 16685.91, -8915.40, -39404.43, -41722.88, 0.00, 0.00, 0.00, -60921.15, -0.03, 0.00, -0.03
0, 16680.12, -8920.11, -39409.90, -41738.80, 0.00, 0.00, 0.00, -61014.02, -0.03, -0.03, -0.03
1, 16681.02, -8919.55, -39429.84, -41737.16, 0.00, 0.00, 0.00, -61071.94, 0.00, -0.03, -0.03
2, 16681.60, -8919.42, -39435.76, -41726.97, 0.00, 0.00, 0.00, -60996.10, -0.03, 0.00, -0.03
3, 16683.47, -8918.95, -39414.93, -41723.53, 0.00, 0.00, 0.00, -60921.27, -0.03, -0.03, 0.00
4, 16683.32, -8919.04, -39409.59, -41735.46, 0.00, 0.00, 0.00, -60994.73, -0.03, -0.03, 0.00
5, 16674.02, -8920.38, -39430.84, -41743.80, 0.00, 0.00, 0.00, -61075.27, -0.03, -0.03, -0.03
6, 16678.04, -8921.39, -39437.57, -41733.21, 0.00, 0.00, 0.00, -61011.92, 0.00, -0.03, -0.03
7, 16678.40, -8926.57, -39415.42, -41726.70, 0.00, 0.00, 0.00, -60918.31, -0.03, -0.03, 0.00
8, 16671.29, -8925.07, -39400.29, -41732.32, 0.00, 0.00, 0.00, -60966.57, 0.00, 0.00, 0.00
9, 16678.54, -8921.97, -39416.25, -41738.91, 0.00, 0.00, 0.00, -61064.11, -0.03, 0.00, -0.03
10, 16679.77, -8922.73, -39429.57, -41729.39, 0.00, 0.00, 0.00, -61027.64, 0.00, -0.03, -0.03
11, 16677.37, -8926.37, -39416.65, -41722.48, 0.00, 0.00, 0.00, -60928.37, -0.03, -0.03, -0.03
12, 16671.23, -8928.94, -39403.93, -41736.20, 0.00, 0.00, 0.00, -60953.14, 0.00, -0.03, -0.03
13, 16665.88, -8927.00, -39418.06, -41747.36, 0.00, 0.00, 0.00, -61060.61, -0.03, -0.03, -0.03
14, 16663.05, -8931.82, -39439.96, -41743.47, 0.00, 0.00, 0.00, -61056.56, 0.00, -0.03, -0.03
15, 16665.24, -8931.78, -39432.23, -41731.73, 0.00, 0.00, 0.00, -60954.12, 0.00, -0.03, 0.00
16, 16664.23, -8935.09, -39417.88, -41737.84, 0.00, 0.00, 0.00, -60952.47, 0.00, -0.03, -0.03
17, 16660.56, -8931.13, -39424.81, -41747.54, 0.00, 0.00, 0.00, -61055.98, -0.03, 0.00, -0.03
18, 16665.84, -8929.79, -39443.72, -41742.37, 0.00, 0.00, 0.00, -61073.48, -0.03, -0.03, -0.03
19, 16672.10, -8928.72, -39439.59, -41730.32, 0.00, 0.00, 0.00, -60971.45, -0.03, -0.03, -0.03
20, 16666.55, -8930.24, -39418.57, -41735.06, 0.00, 0.00, 0.00, -60940.82, 0.00, -0.03, 0.00
21, 16657.48, -8935.47, -39423.40, -41752.30, 0.00, 0.00, 0.00, -61045.63, -0.03, -0.03, 0.00
22, 16663.85, -8928.29, -39439.88, -41744.32, 0.00, 0.00, 0.00, -61081.30, 0.00, -0.03, -0.03
23, 16669.10, -8923.73, -39436.03, -41727.11, 0.00, 0.00, 0.00, -60985.30, -0.03, 0.00, -0.03
24, 16670.62, -8924.74, -39412.43, -41723.73, 0.00, 0.00, 0.00, -60924.86, -0.03, 0.00, 0.00
25, 16669.64, -8926.44, -39408.32, -41735.71, 0.00, 0.00, 0.00, -61008.14, 0.00, 0.00, -0.03
26, 16664.32, -8928.47, -39427.36, -41737.68, 0.00, 0.00, 0.00, -61075.16, -0.03, -0.03, -0.03
27, 16668.08, -8930.50, -39427.94, -41719.69, 0.00, 0.00, 0.00, -60998.38, -0.03, -0.03, -0.03
28, 16668.01, -8932.11, -39409.16, -41713.63, 0.00, 0.00, 0.00, -60916.05, -0.03, 0.00, -0.03
29, 16670.38, -8925.01, -39399.57, -41719.64, 0.00, 0.00, 0.00, -60979.29, -0.03, -0.03, -0.03
30, 16668.32, -8923.13, -39415.38, -41722.21, 0.00, 0.00, 0.00, -61062.93, -0.03, 0.00, 0.00
31, 16664.90, -8927.89, -39427.80, -41713.43, 0.00, 0.00, 0.00, -61015.84, -0.03, -0.03, -0.03
32, 16661.73, -8931.29, -39410.04, -41710.21, 0.00, 0.00, 0.00, -60918.76, 0.00, -0.03, 0.00
33, 16658.29, -8930.55, -39401.48, -41724.09, 0.00, 0.00, 0.00, -60965.54, 0.00, -0.03, -0.03
34, 16656.16, -8931.62, -39419.49, -41735.91, 0.00, 0.00, 0.00, -61067.89, -0.03, 0.00, -0.03
35, 16657.62, -8928.92, -39433.19, -41726.66, 0.00, 0.00, 0.00, -61040.82, -0.03, 0.00, -0.03
36, 16668.72, -8931.04, -39421.97, -41721.47, 0.00, 0.00, 0.00, -60939.44, 0.00, -0.03, -0.03
37, 16667.72, -8930.28, -39406.59, -41732.76, 0.00, 0.00, 0.00, -60957.21, -0.03, -0.03, -0.03
38, 16659.71, -8933.63, -39421.68, -41748.63, 0.00, 0.00, 0.00, -61067.73, 0.00, -0.03, 0.00
39, 16660.36, -8934.80, -39441.08, -41740.47, 0.00, 0.00, 0.00, -61067.45, 0.00, 0.00, 0.00
40, 16666.11, -8933.81, -39431.29, -41726.73, 0.00, 0.00, 0.00, -60959.44, 0.00, -0.03, -0.03
41, 16662.17, -8933.63, -39416.23, -41734.35, 0.00, 0.00, 0.00, -60948.04, -0.03, 0.00, 0.00
42, 16664.10, -8926.75, -39416.65, -41741.55, 0.00, 0.00, 0.00, -61048.76, -0.03, 0.00, -0.03
43, 16672.14, -8921.90, -39429.53, -41732.05, 0.00, 0.00, 0.00, -61066.77, -0.03, 0.00, 0.00
44, 16677.53, -8921.07, -39425.77, -41719.89, 0.00, 0.00, 0.00, -60967.06, -0.03, -0.03, -0.03
45, 16679.79, -8917.79, -39403.60, -41721.34, 0.00, 0.00, 0.00, -60925.42, -0.03, 0.00, -0.03
46, 16676.39, -8915.86, -39404.25, -41733.03, 0.00, 0.00, 0.00, -61022.07, -0.03, 0.00, 0.00
47, 16675.99, -8918.21, -39422.26, -41730.57, 0.00, 0.00, 0.00, -61069.03, -0.03, 0.00, 0.00
48, 16677.91, -8920.27, -39424.14, -41714.90, 0.00, 0.00, 0.00, -60979.18, 0.00, 0.00, -0.03
49, 16683.14, -8921.56, -39405.23, -41711.21, 0.00, 0.00, 0.00, -60911.54, -0.03, -0.03, 0.00
50, 16681.24, -8916.45, -39401.18, -41716.87, 0.00, 0.00, 0.00, -60988.81, -0.03, -0.03, -0.03
51, 16680.57, -8912.24, -39419.07, -41715.42, 0.00, 0.00, 0.00, -61059.96, 0.00, -0.03, -0.03
52, 16682.51, -8912.51, -39427.83, -41705.07, 0.00, 0.00, 0.00, -60996.46, 0.00, -0.03, -0.03
53, 16683.88, -8918.17, -39408.94, -41703.91, 0.00, 0.00, 0.00, -60909.95, -0.03, -0.03, -0.03
54, 16673.87, -8923.44, -39401.48, -41721.12, 0.00, 0.00, 0.00, -60970.08, -0.03, -0.03, -0.03
55, 16675.59, -8920.60, -39414.33, -41727.38, 0.00, 0.00, 0.00, -61060.74, -0.03, -0.03, -0.03
56, 16674.04, -8920.20, -39425.46, -41718.01, 0.00, 0.00, 0.00, -61017.94, -0.03, 0.00, 0.00
57, 16669.08, -8926.10, -39414.30, -41716.02, 0.00, 0.00, 0.00, -60921.44, -0.03, -0.03, -0.03
58, 16664.61, -8927.76, -39400.89, -41725.72, 0.00, 0.00, 0.00, -60951.53, -0.03, 0.00, 0.00
59, 16664.10, -8927.69, -39417.43, -41735.82, 0.00, 0.00, 0.00, -61057.83, -0.03, -0.03, -0.03
60, 16661.79, -8932.20, -39436.88, -41731.31, 0.00, 0.00, 0.00, -61043.89, -0.03, -0.03, 0.00
61, 16661.26, -8937.66, -39423.65, -41721.81, 0.00, 0.00, 0.00, -60938.27, 0.00, -0.03, -0.03
62, 16658.98, -8943.36, -39409.30, -41730.21, 0.00, 0.00, 0.00, -60948.45, 0.00, -0.03, 0.00
63, 16651.09, -8945.10, -39423.63, -41742.04, 0.00, 0.00, 0.00, -61061.32, 0.00, -0.03, 0.00
64, 16661.06, -8937.57, -39437.11, -41729.52, 0.00, 0.00, 0.00, -61062.30, -0.03, 0.00, 0.00
65, 16666.67, -8933.90, -39425.88, -41713.94, 0.00, 0.00, 0.00, -60953.36, -0.03, -0.03, 0.00
66, 16663.81, -8934.17, -39406.84, -41719.30, 0.00, 0.00, 0.00, -60927.70, -0.03, 0.00, 0.00
67, 16661.93, -8933.39, -39411.73, -41732.67, 0.00, 0.00, 0.00, -61032.26, 0.00, -0.03, 0.00
68, 16665.59, -8926.35, -39429.66, -41727.22, 0.00, 0.00, 0.00, -61069.12, 0.00, 0.00, -0.03
69, 16671.34, -8926.28, -39427.83, -41712.62, 0.00, 0.00, 0.00, -60969.72, 0.00, -0.03, 0.00
70, 16672.48, -8928.00, -39410.19, -41717.59, 0.00, 0.00, 0.00, -60921.38, 0.00, -0.03, -0.03
71, 16671.23, -8922.62, -39411.18, -41733.43, 0.00, 0.00, 0.00, -61014.38, 0.00, -0.03, -0.03
72, 16670.96, -8917.09, -39426.22, -41731.98, 0.00, 0.00, 0.00, -61073.59, -0.03, 0.00, -0.03
73, 16672.59, -8922.10, -39427.45, -41717.54, 0.00, 0.00, 0.00, -60990.18, 0.00, -0.03, -0.03
74, 16675.56, -8924.18, -39404.92, -41712.20, 0.00, 0.00, 0.00, -60913.40, 0.00, 0.00, -0.03
75, 16663.00, -8928.99, -39403.69, -41727.60, 0.00, 0.00, 0.00, -60990.09, 0.00, 0.00, 0.00
76, 16664.59, -8927.78, -39418.48, -41728.54, 0.00, 0.00, 0.00, -61065.07, 0.00, 0.00, 0.00
77, 16671.79, -8923.20, -39424.39, -41714.03, 0.00, 0.00, 0.00, -61002.63, -0.03, -0.03, 0.00
78, 16673.51, -8921.03, -39401.95, -41703.75, 0.00, 0.00, 0.00, -60908.30, -0.03, 0.00, 0.00
79, 16669.88, -8919.15, -39386.66, -41707.26, 0.00, 0.00, 0.00, -60954.68, -0.03, 0.00, 0.00
80, 16682.69, -8915.44, -39402.08, -41711.73, 0.00, 0.00, 0.00, -61047.89, -0.03, -0.03, -0.03
81, 16681.24, -8918.01, -39417.32, -41706.48, 0.00, 0.00, 0.00, -61017.89, 0.00, -0.03, -0.03
82, 16680.86, -8924.20, -39404.36, -41703.61, 0.00, 0.00, 0.00, -60923.30, 0.00, -0.03, 0.00
83, 16670.11, -8929.10, -39394.46, -41719.93, 0.00, 0.00, 0.00, -60953.92, 0.00, -0.03, -0.03
84, 16669.80, -8929.43, -39411.24, -41735.13, 0.00, 0.00, 0.00, -61061.88, -0.03, -0.03, 0.00
85, 16675.65, -8923.02, -39430.71, -41729.79, 0.00, 0.00, 0.00, -61056.52, -0.03, 0.00, -0.03
86, 16676.39, -8922.88, -39420.86, -41721.25, 0.00, 0.00, 0.00, -60950.50, 0.00, -0.03, -0.03
87, 16664.99, -8930.50, -39407.58, -41731.20, 0.00, 0.00, 0.00, -60949.54, -0.03, 0.00, -0.03
88, 16665.08, -8930.06, -39415.27, -41739.20, 0.00, 0.00, 0.00, -61052.07, 0.00, -0.03, 0.00
89, 16667.99, -8930.06, -39432.61, -41733.81, 0.00, 0.00, 0.00, -61066.33, -0.03, -0.03, -0.03
90, 16670.65, -8931.33, -39424.05, -41719.35, 0.00, 0.00, 0.00, -60960.96, -0.03, -0.03, -0.03
91, 16666.76, -8935.33, -39405.32, -41722.32, 0.00, 0.00, 0.00, -60926.59, -0.03, -0.03, -0.03
92, 16663.07, -8936.07, -39409.41, -41734.44, 0.00, 0.00, 0.00, -61022.20, 0.00, 0.00, 0.00
93, 16675.21, -8929.50, -39426.38, -41727.66, 0.00, 0.00, 0.00, -61065.12, -0.03, -0.03, -0.03
94, 16682.20, -8922.66, -39424.74, -41708.38, 0.00, 0.00, 0.00, -60971.96, -0.03, -0.03, 0.00
95, 16680.21, -8923.00, -39406.17, -41707.10, 0.00, 0.00, 0.00, -60913.98, -0.03, 0.00, 0.00
96, 16664.48, -8932.09, -39408.49, -41724.40, 0.00, 0.00, 0.00, -61002.51, 0.00, -0.03, -0.03
97, 16661.35, -8928.36, -39424.65, -41724.92, 0.00, 0.00, 0.00, -61062.86, -0.03, 0.00, -0.03
98, 16671.34, -8927.98, -39428.79, -41712.29, 0.00, 0.00, 0.00, -60987.80, 0.00, 0.00, -0.03
99, 16671.00, -8933.59, -39409.97, -41706.01, 0.00, 0.00, 0.00, -60908.03, 0.00, -0.03, 0.00
100, 16664.34, -8933.41, -39404.65, -41713.58, 0.00, 0.00, 0.00, -60976.03, -0.03, -0.03, 0.00
101, 16663.22, -8930.01, -39422.95, -41715.13, 0.00, 0.00, 0.00, -61063.09, -0.03, -0.03, 0.00
102, 16665.88, -8932.34, -39432.25, -41703.95, 0.00, 0.00, 0.00, -61008.32, 0.00, -0.03, -0.03
103, 16668.72, -8933.05, -39410.04, -41696.73, 0.00, 0.00, 0.00, -60908.08, -0.03, -0.03, 0.00
104, 16663.43, -8934.86, -39398.79, -41710.79, 0.00, 0.00, 0.00, -60954.81, -0.03, -0.03, 0.00
105, 16662.40, -8936.70, -39412.41, -41721.16, 0.00, 0.00, 0.00, -61053.34, -0.03, -0.03, -0.03
106, 16665.10, -8936.92, -39424.77, -41712.73, 0.00, 0.00, 0.00, -61024.29, -0.03, 0.00, -0.03
107, 16668.37, -8935.33, -39411.96, -41704.29, 0.00, 0.00, 0.00, -60919.10, -0.03, 0.00, -0.03
108, 16663.92, -8935.31, -39400.36, -41715.59, 0.00, 0.00, 0.00, -60940.00, -0.03, -0.03, -0.03
109, 16661.35, -8937.55, -39418.29, -41729.14, 0.00, 0.00, 0.00, -61056.78, -0.03, -0.03, 0.00
110, 16659.69, -8938.89, -39440.16, -41724.38, 0.00, 0.00, 0.00, -61064.94, -0.03, -0.03, 0.00
111, 16660.43, -8940.34, -39435.05, -41714.32, 0.00, 0.00, 0.00, -60960.29, -0.03, -0.03, -0.03
112, 16654.80, -8943.47, -39421.68, -41724.65, 0.00, 0.00, 0.00, -60949.94, -0.03, -0.03, 0.00
113, 16652.70, -8938.95, -39430.58, -41741.93, 0.00, 0.00, 0.00, -61055.96, 0.00, -0.03, 0.00
114, 16658.71, -8931.67, -39448.68, -41738.80, 0.00, 0.00, 0.00, -61082.38, -0.03, 0.00, -0.03
115, 16669.97, -8928.49, -39438.45, -41723.17, 0.00, 0.00, 0.00, -60977.19, -0.03, -0.03, -0.03
116, 16670.73, -8930.86, -39416.38, -41726.21, 0.00, 0.00, 0.00, -60935.93, 0.00, -0.03, -0.03
117, 16671.07, -8925.81, -39411.06, -41736.43, 0.00, 0.00, 0.00, -61026.61, -0.03, 0.00, -0.03
118, 16673.48, -8924.40, -39426.09, -41735.42, 0.00, 0.00, 0.00, -61072.18, 0.00, 0.00, -0.03
119, 16679.45, -8923.84, -39422.93, -41718.75, 0.00, 0.00, 0.00, -60979.27, -0.03, -0.03, 0.00
120, 16679.43, -8925.86, -39399.44, -41714.48, 0.00, 0.00, 0.00, -60908.39, 0.00, -0.03, 0.00
121, 16674.20, -8926.53, -39391.68, -41723.84, 0.00, 0.00, 0.00, -60985.48, 0.00, 0.00, 0.00
122, 16671.72, -8922.95, -39407.24, -41725.81, 0.00, 0.00, 0.00, -61056.96, 0.00, 0.00, -0.03
123, 16682.80, -8918.17, -39411.29, -41709.76, 0.00, 0.00, 0.00, -60984.96, -0.03, 0.00, 0.00
124, 16680.46, -8922.17, -39392.51, -41702.81, 0.00, 0.00, 0.00, -60895.74, 0.00, 0.00, -0.03
125, 16670.40, -8928.92, -39389.11, -41714.95, 0.00, 0.00, 0.00, -60955.69, -0.03, 0.00, -0.03
126, 16663.58, -8925.05, -39409.05, -41716.71, 0.00, 0.00, 0.00, -61045.43, -0.03, -0.03, 0.00
127, 16667.99, -8919.66, -39417.55, -41700.78, 0.00, 0.00, 0.00, -60995.32, 0.00, -0.03, -0.03
128, 16678.33, -8920.27, -39400.45, -41690.63, 0.00, 0.00, 0.00, -60894.24, 0.00, -0.03, -0.03
129, 16674.89, -8921.68, -39386.45, -41697.98, 0.00, 0.00, 0.00, -60925.67, 0.00, -0.03, 0.00
130, 16670.96, -8919.71, -39401.43, -41704.98, 0.00, 0.00, 0.00, -61030.74, -0.03, -0.03, 0.00
131, 16670.20, -8922.35, -39417.95, -41696.89, 0.00, 0.00, 0.00, -61011.90, 0.00, -0.03, 0.00
132, 16668.88, -8922.08, -39406.53, -41684.64, 0.00, 0.00, 0.00, -60904.63, -0.03, -0.03, 0.00
133, 16665.13, -8925.97, -39392.49, -41693.07, 0.00, 0.00, 0.00, -60912.35, -0.03, 0.00, 0.00
134, 16660.56, -8932.09, -39404.13, -41707.95, 0.00, 0.00, 0.00, -61023.37, 0.00, 0.00, -0.03
135, 16662.13, -8929.90, -39425.50, -41705.40, 0.00, 0.00, 0.00, -61037.83, 0.00, -0.03, 0.00
136, 16662.17, -8932.34, -39420.77, -41695.66, 0.00, 0.00, 0.00, -60935.52, -0.03, -0.03, -0.03
137, 16656.61, -8939.11, -39402.73, -41703.70, 0.00, 0.00, 0.00, -60915.90, 0.00, -0.03, -0.03
138, 16651.69, -8941.84, -39411.20, -41720.63, 0.00, 0.00, 0.00, -61025.40, -0.03, -0.03, -0.03
139, 16657.77, -8935.47, -39428.30, -41718.12, 0.00, 0.00, 0.00, -61060.80, -0.03, 0.00, -0.03
140, 16664.16, -8934.46, -39425.79, -41709.11, 0.00, 0.00, 0.00, -60966.88, 0.00, -0.03, -0.03
141, 16659.67, -8939.51, -39405.54, -41715.30, 0.00, 0.00, 0.00, -60917.87, -0.03, -0.03, 0.00
142, 16657.79, -8936.83, -39401.09, -41726.88, 0.00, 0.00, 0.00, -61003.99, 0.00, -0.03, -0.03
143, 16658.62, -8935.15, -39420.16, -41727.17, 0.00, 0.00, 0.00, -61063.96, 0.00, -0.03, -0.03
144, 16667.43, -8928.05, -39421.26, -41711.37, 0.00, 0.00, 0.00, -60980.00, -0.03, -0.03, -0.03
145, 16667.23, -8928.83, -39399.15, -41705.49, 0.00, 0.00, 0.00, -60899.52, 0.00, -0.03, -0.03
146, 16663.49, -8929.57, -39392.80, -41714.99, 0.00, 0.00, 0.00, -60968.49, -0.03, -0.03, -0.03
147, 16663.96, -8926.71, -39414.95, -41720.82, 0.00, 0.00, 0.00, -61054.10, -0.03, 0.00, 0.00
148, 16671.79, -8923.38, -39424.12, -41707.44, 0.00, 0.00, 0.00, -60995.09, 0.00, -0.03, 0.00
149, 16672.70, -8927.20, -39409.12, -41704.93, 0.00, 0.00, 0.00, -60908.73, -0.03, -0.03, -0.03
150, 16667.43, -8927.20, -39393.03, -41711.93, 0.00, 0.00, 0.00, -60949.65, -0.03, -0.03, 0.00
151, 16662.91, -8927.55, -39410.35, -41718.84, 0.00, 0.00, 0.00, -61047.24, -0.03, 0.00, -0.03
152, 16667.31, -8925.41, -39425.88, -41710.34, 0.00, 0.00, 0.00, -61014.23, 0.00, 0.00, -0.03
153, 16680.73, -8920.07, -39405.12, -41695.77, 0.00, 0.00, 0.00, -60903.70, -0.03, 0.00, -0.03
154, 16675.12, -8923.42, -39390.61, -41704.84, 0.00, 0.00, 0.00, -60927.39, -0.03, -0.03, -0.03
155, 16669.84, -8923.31, -39406.35, -41717.50, 0.00, 0.00, 0.00, -61033.02, -0.03, 0.00, 0.00
156, 16676.66, -8921.59, -39424.59, -41708.78, 0.00, 0.00, 0.00, -61029.13, -0.03, -0.03, 0.00
157, 16674.69, -8927.15, -39413.30, -41694.88, 0.00, 0.00, 0.00, -60921.46, 0.00, 0.00, -0.03
158, 16670.67, -8932.29, -39394.79, -41696.75, 0.00, 0.00, 0.00, -60914.67, 0.00, -0.03, -0.03
159, 16663.72, -8932.74, -39402.01, -41708.29, 0.00, 0.00, 0.00, -61019.86, -0.03, 0.00, -0.03
160, 16662.51, -8932.36, -39420.05, -41705.02, 0.00, 0.00, 0.00, -61039.86, -0.03, -0.03, -0.03
161, 16668.79, -8932.14, -39414.84, -41694.00, 0.00, 0.00, 0.00, -60936.38, -0.03, -0.03, -0.03
162, 16665.21, -8931.11, -39395.98, -41701.67, 0.00, 0.00, 0.00, -60905.15, -0.03, -0.03, 0.00
163, 16659.58, -8931.33, -39401.00, -41721.45, 0.00, 0.00, 0.00, -61008.41, -0.03, -0.03, -0.03
164, 16660.34, -8929.50, -39420.52, -41724.11, 0.00, 0.00, 0.00, -61053.77, -0.03, -0.03, -0.03
165, 16666.09, -8927.93, -39420.27, -41714.70, 0.00, 0.00, 0.00, -60964.96, -0.03, -0.03, -0.03
166, 16671.88, -8927.78, -39400.47, -41716.04, 0.00, 0.00, 0.00, -60905.73, -0.03, 0.00, 0.00
167, 16670.33, -8930.55, -39397.23, -41727.06, 0.00, 0.00, 0.00, -60990.89, 0.00, 0.00, 0.00
168, 16673.78, -8924.18, -39412.76, -41722.79, 0.00, 0.00, 0.00, -61054.84, 0.00, -0.03, 0.00
169, 16672.10, -8925.39, -39416.52, -41710.16, 0.00, 0.00, 0.00, -60981.10, -0.03, -0.03, 0.00
170, 16678.13, -8923.62, -39395.11, -41703.70, 0.00, 0.00, 0.00, -60897.88, -0.03, -0.03, 0.00
171, 16682.47, -8913.79, -39383.68, -41709.32, 0.00, 0.00, 0.00, -60958.21, 0.00, -0.03, -0.03
172, 16675.96, -8912.45, -39402.66, -41715.62, 0.00, 0.00, 0.00, -61044.67, -0.03, -0.03, -0.03
173, 16681.96, -8913.90, -39416.36, -41705.87, 0.00, 0.00, 0.00, -60995.27, 0.00, 0.00, -0.03
174, 16687.23, -8914.59, -39397.65, -41694.38, 0.00, 0.00, 0.00, -60895.79, -0.03, -0.03, 0.00
175, 16684.44, -8913.38, -39384.20, -41700.57, 0.00, 0.00, 0.00, -60935.77, 0.00, 0.00, -0.03
176, 16680.19, -8915.37, -39404.70, -41709.94, 0.00, 0.00, 0.00, -61041.02, 0.00, -0.03, -0.03
177, 16675.59, -8919.11, -39422.82, -41702.79, 0.00, 0.00, 0.00, -61018.81, 0.00, 0.00, 0.00
178, 16684.75, -8920.45, -39407.31, -41692.13, 0.00, 0.00, 0.00, -60911.23, -0.03, -0.03, -0.03
179, 16675.92, -8924.81, -39392.87, -41700.66, 0.00, 0.00, 0.00, -60927.30, -0.03, 0.00, -0.03
180, 16667.83, -8929.77, -39409.07, -41714.52, 0.00, 0.00, 0.00, -61038.54, 0.00, -0.03, 0.00
181, 16674.58, -8924.47, -39422.48, -41706.43, 0.00, 0.00, 0.00, -61037.00, -0.03, -0.03, -0.03
182, 16673.80, -8925.86, -39412.63, -41697.31, 0.00, 0.00, 0.00, -60933.27, -0.03, -0.03, 0.00
183, 16667.58, -8930.10, -39393.92, -41702.90, 0.00, 0.00, 0.00, -60918.45, 0.00, -0.03, -0.03
184, 16664.50, -8931.29, -39405.14, -41719.39, 0.00, 0.00, 0.00, -61026.30, 0.00, -0.03, 0.00
185, 16664.05, -8927.11, -39422.87, -41712.85, 0.00, 0.00, 0.00, -61048.36, -0.03, -0.03, -0.03
186, 16680.23, -8923.08, -39416.96, -41701.74, 0.00, 0.00, 0.00, -60946.54, -0.03, -0.03, 0.00
187, 16680.01, -8926.01, -39397.99, -41708.20, 0.00, 0.00, 0.00, -60907.54, 0.00, 0.00, 0.00
188, 16671.12, -8925.92, -39401.45, -41721.16, 0.00, 0.00, 0.00, -61005.84, -0.03, -0.03, 0.00
189, 16668.86, -8924.02, -39420.12, -41721.41, 0.00, 0.00, 0.00, -61054.59, -0.03, 0.00, 0.00
190, 16680.39, -8919.31, -39415.89, -41704.89, 0.00, 0.00, 0.00, -60964.00, 0.00, 0.00, -0.03
191, 16680.46, -8922.26, -39396.22, -41702.48, 0.00, 0.00, 0.00, -60901.53, 0.00, 0.00, -0.03
192, 16671.36, -8922.59, -39394.88, -41715.55, 0.00, 0.00, 0.00, -60980.21, -0.03, 0.00, -0.03
193, 16668.32, -8922.03, -39411.60, -41718.55, 0.00, 0.00, 0.00, -61049.00, -0.03, -0.03, 0.00
194, 16672.48, -8919.84, -39416.81, -41704.24, 0.00, 0.00, 0.00, -60978.69, -0.03, -0.03, -0.03
195, 16676.59, -8921.45, -39399.08, -41700.75, 0.00, 0.00, 0.00, -60894.55, 0.00, 0.00, -0.03
196, 16676.75, -8917.92, -39392.80, -41715.84, 0.00, 0.00, 0.00, -60958.48, 0.00, 0.00, 0.00
197, 16673.37, -8914.75, -39410.73, -41723.71, 0.00, 0.00, 0.00, -61052.47, -0.03, 0.00, 0.00
198, 16676.21, -8912.49, -39421.26, -41713.38, 0.00, 0.00, 0.00, -61005.66, -0.03, -0.03, -0.03
199, 16675.59, -8917.16, -39404.89, -41707.66, 0.00, 0.00, 0.00, -60905.06, 0.00, -0.03, -0.03
200, 16668.12, -8925.12, -39393.52, -41718.77, 0.00, 0.00, 0.00, -60942.18, -0.03, -0.03, -0.03
201, 16668.57, -8924.51, -39410.04, -41729.86, 0.00, 0.00, 0.00, -61046.61, 0.00, 0.00, 0.00
202, 16678.16, -8916.83, -39423.25, -41717.68, 0.00, 0.00, 0.00, -61027.66, -0.03, 0.00, -0.03
203, 16682.04, -8919.82, -39407.27, -41702.92, 0.00, 0.00, 0.00, -60916.10, -0.03, -0.03, 0.00
204, 16676.86, -8924.05, -39394.86, -41710.28, 0.00, 0.00, 0.00, -60923.50, 0.00, -0.03, -0.03
205, 16673.64, -8926.30, -39407.18, -41725.14, 0.00, 0.00, 0.00, -61034.05, 0.00, -0.03, -0.03
206, 16672.52, -8925.81, -39424.68, -41722.70, 0.00, 0.00, 0.00, -61043.64, -0.03, -0.03, 0.00
207, 16674.02, -8923.29, -39415.80, -41709.11, 0.00, 0.00, 0.00, -60936.87, 0.00, 0.00, 0.00
208, 16674.24, -8924.58, -39398.57, -41715.53, 0.00, 0.00, 0.00, -60916.28, -0.03, 0.00, -0.03
209, 16665.53, -8933.10, -39410.55, -41737.37, 0.00, 0.00, 0.00, -61028.42, 0.00, 0.00, -0.03
210, 16668.68, -8929.77, -39426.38, -41732.02, 0.00, 0.00, 0.00, -61060.92, -0.03, -0.03, -0.03
211, 16672.52, -8928.09, -39421.93, -41717.20, 0.00, 0.00, 0.00, -60961.83, 0.00, -0.03, -0.03
212, 16673.24, -8928.05, -39404.94, -41717.32, 0.00, 0.00, 0.00, -60914.43, 0.00, -0.03, 0.00
213, 16669.75, -8924.13, -39406.41, -41726.70, 0.00, 0.00, 0.00, -61006.56, -0.03, -0.03, -0.03
214, 16667.20, -8921.77, -39423.85, -41725.95, 0.00, 0.00, 0.00, -61059.20, 0.00, -0.03, 0.00
215, 16678.98, -8919.93, -39423.92, -41709.72, 0.00, 0.00, 0.00, -60974.17, -0.03, -0.03, 0.00
216, 16681.75, -8918.08, -39398.91, -41702.74, 0.00, 0.00, 0.00, -60900.14, 0.00, -0.03, 0.00
217, 16676.81, -8918.12, -39392.54, -41717.05, 0.00, 0.00, 0.00, -60970.33, -0.03, -0.03, -0.03
218, 16675.70, -8916.87, -39407.73, -41720.63, 0.00, 0.00, 0.00, -61044.22, -0.03, -0.03, -0.03
219, 16682.47, -8913.29, -39414.71, -41707.57, 0.00, 0.00, 0.00, -60982.80, -0.03, -0.03, 0.00
220, 16685.29, -8919.60, -39397.32, -41703.68, 0.00, 0.00, 0.00, -60891.49, 0.00, 0.00, 0.00
221, 16679.68, -8920.87, -39386.66, -41715.44, 0.00, 0.00, 0.00, -60943.13, 0.00, -0.03, 0.00
222, 16675.92, -8918.57, -39400.43, -41716.69, 0.00, 0.00, 0.00, -61038.97, -0.03, 0.00, 0.00
223, 16677.26, -8919.24, -39413.81, -41704.78, 0.00, 0.00, 0.00, -61003.63, -0.03, -0.03, -0.03
224, 16687.92, -8913.96, -39397.32, -41692.30, 0.00, 0.00, 0.00, -60901.62, -0.03, -0.03, -0.03
225, 16684.21, -8914.32, -39384.96, -41702.41, 0.00, 0.00, 0.00, -60925.42, -0.03, 0.00, 0.00
226, 16682.87, -8911.46, -39394.64, -41709.16, 0.00, 0.00, 0.00, -61025.98, -0.03, -0.03, -0.03
227, 16680.62, -8912.49, -39412.90, -41701.02, 0.00, 0.00, 0.00, -61018.41, -0.03, 0.00, -0.03
228, 16682.18, -8914.68, -39403.57, -41689.78, 0.00, 0.00, 0.00, -60915.12, -0.03, 0.00, 0.00
229, 16674.11, -8922.91, -39389.72, -41702.36, 0.00, 0.00, 0.00, -60911.90, 0.00, -0.03, 0.00
230, 16671.07, -8923.67, -39402.26, -41716.94, 0.00, 0.00, 0.00, -61024.20, 0.00, 0.00, 0.00
231, 16678.94, -8920.49, -39423.85, -41713.76, 0.00, 0.00, 0.00, -61048.85, -0.03, -0.03, -0.03
232, 16684.28, -8920.78, -39419.42, -41702.79, 0.00, 0.00, 0.00, -60948.27, -0.03, -0.03, 0.00
233, 16678.74, -8925.19, -39400.00, -41705.92, 0.00, 0.00, 0.00, -60919.10, -0.03, -0.03, -0.03
234, 16674.20, -8924.65, -39400.69, -41717.90, 0.00, 0.00, 0.00, -61014.02, 0.00, -0.03, -0.03
235, 16680.82, -8917.83, -39418.53, -41715.48, 0.00, 0.00, 0.00, -61056.78, 0.00, -0.03, -0.03
236, 16684.82, -8918.41, -39417.88, -41703.13, 0.00, 0.00, 0.00, -60962.37, -0.03, -0.03, -0.03
237, 16681.06, -8923.89, -39395.80, -41705.85, 0.00, 0.00, 0.00, -60902.62, 0.00, -0.03, -0.03
238, 16673.53, -8923.82, -39388.49, -41716.82, 0.00, 0.00, 0.00, -60986.38, -0.03, 0.00, -0.03
239, 16676.50, -8920.58, -39406.62, -41718.10, 0.00, 0.00, 0.00, -61054.55, -0.03, 0.00, -0.03
240, 16690.96, -8917.92, -39409.41, -41706.81, 0.00, 0.00, 0.00, -60978.39, -0.03, -0.03, -0.03
241, 16689.96, -8915.48, -39389.70, -41699.52, 0.00, 0.00, 0.00, -60896.90, 0.00, -0.03, -0.03
242, 16688.06, -8910.32, -39382.01, -41708.71, 0.00, 0.00, 0.00, -60957.72, 0.00, 0.00, -0.03
243, 16684.35, -8907.35, -39402.97, -41713.36, 0.00, 0.00, 0.00, -61047.29, -0.03, -0.03, -0.03
244, 16682.78, -8908.38, -39414.26, -41701.47, 0.00, 0.00, 0.00, -60995.36, -0.03, -0.03, -0.03
245, 16690.96, -8911.89, -39400.22, -41696.48, 0.00, 0.00, 0.00, -60900.25, 0.00, -0.03, 0.00
246, 16684.84, -8913.99, -39389.74, -41706.77, 0.00, 0.00, 0.00, -60943.97, 0.00, -0.03, 0.00
247, 16680.21, -8911.39, -39403.13, -41711.98, 0.00, 0.00, 0.00, -61042.25, -0.03, -0.03, 0.00
248, 16684.62, -8912.56, -39415.33, -41702.79, 0.00, 0.00, 0.00, -61012.64, -0.03, -0.03, -0.03
249, 16690.81, -8912.29, -39398.82, -41691.72, 0.00, 0.00, 0.00, -60906.69, -0.03, 0.00, -0.03
250, 16685.29, -8912.96, -39381.18, -41697.91, 0.00, 0.00, 0.00, -60918.36, -0.03, -0.03, 0.00
251, 16682.11, -8913.67, -39390.16, -41709.07, 0.00, 0.00, 0.00, -61022.88, 0.00, -0.03, 0.00
252, 16684.86, -8913.70, -39404.71, -41702.52, 0.00, 0.00, 0.00, -61023.34, 0.00, -0.03, -0.03
253, 16683.19, -8917.56, -39397.92, -41695.52, 0.00, 0.00, 0.00, -60916.79, 0.00, 0.00, -0.03
254, 16690.49, -8918.44, -39376.64, -41699.46, 0.00, 0.00, 0.00, -60900.68, -0.03, -0.03, -0.03
255, 16685.11, -8918.17, -39386.07, -41714.03, 0.00, 0.00, 0.00, -61008.10, 0.00, -0.03, -0.03
0, 16683.07, -8919.93, -39408.89, -41713.76, 0.00, 0.00, 0.00, -61036.22, -0.03, -0.03, -0.03
1, 16678.33, -8927.15, -39407.87, -41706.52, 0.00, 0.00, 0.00, -60939.55, 0.00, 0.00, -0.03
2, 16682.34, -8925.32, -39383.30, -41703.01, 0.00, 0.00, 0.00, -60893.50, -0.03, 0.00, 0.00
3, 16679.52, -8920.54, -39384.75, -41710.52, 0.00, 0.00, 0.00, -60988.50, 0.00, -0.03, -0.03
4, 16678.18, -8920.51, -39406.10, -41711.17, 0.00, 0.00, 0.00, -61040.42, -0.03, -0.03, 0.00
5, 16681.67, -8921.79, -39408.52, -41700.22, 0.00, 0.00, 0.00, -60952.56, 0.00, 0.00, -0.03
6, 16686.67, -8923.04, -39388.96, -41701.89, 0.00, 0.00, 0.00, -60889.26, -0.03, 0.00, 0.00
7, 16685.35, -8923.75, -39387.10, -41717.94, 0.00, 0.00, 0.00, -60971.22, 0.00, 0.00, -0.03
8, 16685.87, -8921.88, -39403.91, -41722.66, 0.00, 0.00, 0.00, -61043.73, -0.03, -0.03, -0.03
9, 16686.11, -8919.49, -39410.50, -41709.72, 0.00, 0.00, 0.00, -60973.41, -0.03, -0.03, -0.03
10, 16690.92, -8912.47, -39390.07, -41699.95, 0.00, 0.00, 0.00, -60885.17, -0.03, -0.03, 0.00
11, 16690.34, -8912.65, -39385.43, -41711.71, 0.00, 0.00, 0.00, -60947.19, 0.00, -0.03, -0.03
12, 16683.16, -8910.12, -39406.79, -41717.16, 0.00, 0.00, 0.00, -61040.36, -0.03, -0.03, -0.03
13, 16690.49, -8901.96, -39409.23, -41697.00, 0.00, 0.00, 0.00, -60986.31, 0.00, -0.03, 0.00
14, 16701.02, -8904.71, -39388.49, -41687.95, 0.00, 0.00, 0.00, -60882.13, -0.03, -0.03, -0.03
15, 16695.72, -8909.72, -39381.92, -41702.77, 0.00, 0.00, 0.00, -60920.48, -0.03, -0.03, -0.03
16, 16689.40, -8906.21, -39398.37, -41710.66, 0.00, 0.00, 0.00, -61027.10, -0.03, 0.00, 0.00
17, 16692.13, -8904.06, -39413.48, -41698.34, 0.00, 0.00, 0.00, -61010.14, 0.00, -0.03, -0.03
18, 16692.42, -8907.71, -39402.93, -41687.48, 0.00, 0.00, 0.00, -60902.04, -0.03, 0.00, -0.03
19, 16690.67, -8908.82, -39385.98, -41694.77, 0.00, 0.00, 0.00, -60905.89, 0.00, -0.03, -0.03
20, 16694.81, -8907.42, -39397.36, -41706.79, 0.00, 0.00, 0.00, -61014.72, -0.03, -0.03, 0.00
21, 16690.45, -8908.94, -39420.38, -41705.83, 0.00, 0.00, 0.00, -61030.30, -0.03, -0.03, 0.00
22, 16689.80, -8910.28, -39411.85, -41694.29, 0.00, 0.00, 0.00, -60925.46, 0.00, -0.03, -0.03
23, 16685.60, -8911.60, -39395.26, -41698.61, 0.00, 0.00, 0.00, -60902.71, 0.00, -0.03, 0.00
24, 16677.87, -8911.51, -39403.71, -41713.58, 0.00, 0.00, 0.00, -61007.54, 0.00, 0.00, -0.03
25, 16678.65, -8912.45, -39423.65, -41713.07, 0.00, 0.00, 0.00, -61041.29, 0.00, 0.00, -0.03
26, 16681.87, -8910.39, -39420.88, -41699.32, 0.00, 0.00, 0.00, -60947.13, 0.00, -0.03, 0.00
27, 16684.62, -8911.57, -39404.11, -41704.09, 0.00, 0.00, 0.00, -60900.75, -0.03, -0.03, 0.00
28, 16684.12, -8910.43, -39407.31, -41719.11, 0.00, 0.00, 0.00, -60992.07, -0.03, -0.03, -0.03
29, 16684.32, -8907.93, -39425.19, -41718.34, 0.00, 0.00, 0.00, -61049.45, -0.03, -0.03, 0.00
30, 16688.88, -8906.16, -39429.46, -41705.85, 0.00, 0.00, 0.00, -60972.34, -0.03, -0.03, -0.03
31, 16687.25, -8911.98, -39415.07, -41704.87, 0.00, 0.00, 0.00, -60903.61, 0.00, -0.03, -0.03
32, 16680.21, -8914.41, -39411.91, -41718.21, 0.00, 0.00, 0.00, -60978.37, -0.03, -0.03, -0.03
33, 16679.07, -8911.10, -39428.16, -41721.74, 0.00, 0.00, 0.00, -61058.06, -0.03, -0.03, -0.03
34, 16681.40, -8913.07, -39428.81, -41707.59, 0.00, 0.00, 0.00, -60989.39, -0.03, -0.03, -0.03
35, 16681.75, -8912.45, -39406.68, -41702.52, 0.00, 0.00, 0.00, -60896.61, -0.03, -0.03, -0.03
36, 16687.05, -8910.19, -39390.16, -41709.83, 0.00, 0.00, 0.00, -60942.48, 0.00, -0.03, 0.00
37, 16689.51, -8906.48, -39403.53, -41713.50, 0.00, 0.00, 0.00, -61037.49, -0.03, -0.03, -0.03
38, 16690.87, -8904.20, -39415.60, -41700.33, 0.00, 0.00, 0.00, -61002.29, 0.00, -0.03, 0.00
39, 16699.52, -8902.41, -39396.20, -41683.81, 0.00, 0.00, 0.00, -60894.87, -0.03, -0.03, -0.03
40, 16697.07, -8906.21, -39379.82, -41689.91, 0.00, 0.00, 0.00, -60912.46, -0.03, -0.03, -0.03
41, 16690.14, -8910.30, -39396.18, -41701.22, 0.00, 0.00, 0.00, -61019.30, -0.03, 0.00, 0.00
42, 16686.34, -8908.87, -39413.63, -41690.61, 0.00, 0.00, 0.00, -61013.93, 0.00, 0.00, 0.00
43, 16697.54, -8905.58, -39396.02, -41673.98, 0.00, 0.00, 0.00, -60899.83, 0.00, 0.00, 0.00
44, 16693.56, -8907.30, -39381.74, -41683.19, 0.00, 0.00, 0.00, -60898.15, -0.03, -0.03, -0.03
45, 16684.21, -8907.86, -39396.34, -41699.73, 0.00, 0.00, 0.00, -61008.79, -0.03, 0.00, -0.03
46, 16688.01, -8908.33, -39419.25, -41701.34, 0.00, 0.00, 0.00, -61029.49, -0.03, -0.03, 0.00
47, 16696.15, -8905.87, -39410.04, -41688.59, 0.00, 0.00, 0.00, -60925.85, -0.03, -0.03, -0.03
48, 16691.79, -8908.98, -39393.27, -41693.64, 0.00, 0.00, 0.00, -60894.40, -0.03, 0.00, -0.03
49, 16684.44, -8916.04, -39403.04, -41711.64, 0.00, 0.00, 0.00, -60997.06, 0.00, -0.03, -0.03
50, 16691.07, -8904.02, -39418.91, -41705.71, 0.00, 0.00, 0.00, -61035.88, -0.03, -0.03, -0.03
51, 16696.17, -8905.74, -39420.14, -41693.76, 0.00, 0.00, 0.00, -60946.57, -0.03, -0.03, -0.03
52, 16689.40, -8909.87, -39399.57, -41692.95, 0.00, 0.00, 0.00, -60892.41, 0.00, -0.03, -0.03
53, 16681.38, -8910.14, -39396.71, -41706.27, 0.00, 0.00, 0.00, -60978.48, -0.03, -0.03, -0.03
54, 16680.35, -8908.96, -39414.15, -41708.67, 0.00, 0.00, 0.00, -61045.68, 0.00, 0.00, -0.03
55, 16688.77, -8906.99, -39416.34, -41693.85, 0.00, 0.00, 0.00, -60966.75, -0.03, 0.00, -0.03
56, 16688.55, -8910.21, -39397.16, -41689.20, 0.00, 0.00, 0.00, -60887.02, 0.00, -0.03, -0.03
57, 16679.36, -8916.60, -39390.59, -41704.13, 0.00, 0.00, 0.00, -60954.90, -0.03, -0.03, -0.03
58, 16677.02, -8915.69, -39407.49, -41708.60, 0.00, 0.00, 0.00, -61043.24, -0.03, -0.03, -0.03
59, 16681.44, -8916.13, -39416.81, -41697.11, 0.00, 0.00, 0.00, -60992.75, -0.03, -0.03, -0.03
60, 16681.80, -8919.46, -39401.59, -41692.46, 0.00, 0.00, 0.00, -60901.37, -0.03, -0.03, 0.00
61, 16680.08, -8919.44, -39388.51, -41702.48, 0.00, 0.00, 0.00, -60944.42, -0.03, -0.03, -0.03
62, 16674.87, -8919.06, -39402.08, -41710.16, 0.00, 0.00, 0.00, -61041.65, -0.03, 0.00, -0.03
63, 16675.76, -8916.31, -39414.86, -41699.37, 0.00, 0.00, 0.00, -61013.27, -0.03, -0.03, -0.03
64, 16681.38, -8913.18, -39400.02, -41683.59, 0.00, 0.00, 0.00, -60899.83, 0.00, 0.00, -0.03
65, 16681.46, -8919.53, -39392.15, -41694.68, 0.00, 0.00, 0.00, -60917.71, -0.03, -0.03, -0.03
66, 16678.67, -8918.01, -39410.68, -41708.04, 0.00, 0.00, 0.00, -61027.68, -0.03, -0.03, -0.03
67, 16681.96, -8912.04, -39426.51, -41696.26, 0.00, 0.00, 0.00, -61023.21, -0.03, -0.03, 0.00
68, 16691.07, -8908.22, -39416.32, -41678.87, 0.00, 0.00, 0.00, -60913.57, 0.00, 0.00, 0.00
69, 16688.97, -8909.27, -39395.69, -41683.10, 0.00, 0.00, 0.00, -60895.52, -0.03, -0.03, 0.00
70, 16681.96, -8909.81, -39401.23, -41699.61, 0.00, 0.00, 0.00, -61001.64, 0.00, -0.03, -0.03
71, 16687.39, -8905.16, -39416.61, -41694.07, 0.00, 0.00, 0.00, -61029.31, 0.00, -0.03, -0.03
72, 16692.24, -8904.76, -39410.89, -41683.79, 0.00, 0.00, 0.00, -60927.03, -0.03, 0.00, 0.00
73, 16689.27, -8904.76, -39389.63, -41685.38, 0.00, 0.00, 0.00, -60881.81, -0.03, -0.03, -0.03
74, 16693.09, -8902.25, -39390.16, -41695.97, 0.00, 0.00, 0.00, -60975.94, 0.00, -0.03, -0.03
75, 16692.28, -8904.51, -39411.58, -41699.39, 0.00, 0.00, 0.00, -61029.63, -0.03, -0.03, 0.00
76, 16692.84, -8905.83, -39414.19, -41691.21, 0.00, 0.00, 0.00, -60946.30, 0.00, -0.03, -0.03
77, 16689.58, -8909.27, -39396.76, -41695.21, 0.00, 0.00, 0.00, -60885.84, 0.00, 0.00, -0.03
78, 16684.95, -8911.93, -39390.79, -41709.85, 0.00, 0.00, 0.00, -60967.55, 0.00, -0.03, -0.03
79, 16686.38, -8909.11, -39401.63, -41710.05, 0.00, 0.00, 0.00, -61039.97, 0.00, 0.00, -0.03
80, 16687.61, -8910.68, -39406.50, -41698.99, 0.00, 0.00, 0.00, -60974.46, -0.03, -0.03, -0.03
81, 16691.90, -8908.40, -39381.94, -41690.02, 0.00, 0.00, 0.00, -60884.07, -0.03, -0.03, -0.03
82, 16688.46, -8909.52, -39372.84, -41700.64, 0.00, 0.00, 0.00, -60943.28, -0.03, -0.03, 0.00
83, 16688.57, -8909.27, -39393.63, -41704.98, 0.00, 0.00, 0.00, -61037.29, 0.00, -0.03, 0.00
84, 16691.81, -8908.31, -39413.41, -41696.20, 0.00, 0.00, 0.00, -60999.74, 0.00, -0.03, -0.03
85, 16693.91, -8910.32, -39401.23, -41690.23, 0.00, 0.00, 0.00, -60902.85, -0.03, 0.00, 0.00
86, 16689.29, -8911.46, -39391.80, -41701.78, 0.00, 0.00, 0.00, -60936.78, -0.03, 0.00, -0.03
87, 16687.77, -8913.99, -39410.50, -41714.23, 0.00, 0.00, 0.00, -61041.47, -0.03, -0.03, -0.03
88, 16692.30, -8912.67, -39426.66, -41706.03, 0.00, 0.00, 0.00, -61022.29, 0.00, 0.00, 0.00
89, 16697.22, -8909.94, -39414.82, -41694.25, 0.00, 0.00, 0.00, -60917.09, 0.00, 0.00, 0.00
90, 16692.42, -8912.11, -39398.95, -41703.79, 0.00, 0.00, 0.00, -60921.31, -0.03, 0.00, 0.00
91, 16683.36, -8915.13, -39404.92, -41717.09, 0.00, 0.00, 0.00, -61025.80, -0.03, 0.00, -0.03
92, 16687.19, -8909.83, -39416.25, -41710.50, 0.00, 0.00, 0.00, -61031.14, 0.00, -0.03, -0.03
93, 16691.79, -8912.15, -39410.86, -41703.48, 0.00, 0.00, 0.00, -60927.39, 0.00, -0.03, 0.00
94, 16695.68, -8917.88, -39397.30, -41714.66, 0.00, 0.00, 0.00, -60909.55, -0.03, -0.03, 0.00
95, 16686.31, -8919.75, -39407.53, -41731.58, 0.00, 0.00, 0.00, -61014.96, 0.00, -0.03, -0.03
96, 16688.24, -8914.41, -39417.12, -41717.94, 0.00, 0.00, 0.00, -61042.81, -0.03, -0.03, -0.03
97, 16694.67, -8911.35, -39407.98, -41697.36, 0.00, 0.00, 0.00, -60938.25, -0.03, 0.00, 0.00
98, 16698.76, -8912.02, -39384.29, -41693.20, 0.00, 0.00, 0.00, -60884.27, 0.00, -0.03, -0.03
99, 16685.22, -8921.27, -39387.62, -41707.79, 0.00, 0.00, 0.00, -60979.16, 0.00, 0.00, -0.03
100, 16679.50, -8922.46, -39412.54, -41712.04, 0.00, 0.00, 0.00, -61047.77, -0.03, 0.00, -0.03
101, 16683.86, -8918.82, -39411.04, -41698.09, 0.00, 0.00, 0.00, -60965.03, -0.03, 0.00, -0.03
102, 16695.05, -8920.56, -39379.35, -41692.48, 0.00, 0.00, 0.00, -60885.41, 0.00, -0.03, -0.03
103, 16692.10, -8920.76, -39369.58, -41702.79, 0.00, 0.00, 0.00, -60960.94, -0.03, -0.03, -0.03
104, 16684.86, -8921.90, -39390.57, -41703.30, 0.00, 0.00, 0.00, -61039.66, 0.00, -0.03, -0.03
105, 16694.49, -8912.53, -39402.82, -41683.30, 0.00, 0.00, 0.00, -60975.09, -0.03, -0.03, -0.03
106, 16702.03, -8906.03, -39391.17, -41673.71, 0.00, 0.00, 0.00, -60880.27, 0.00, -0.03, -0.03
107, 16696.82, -8907.15, -39387.26, -41684.79, 0.00, 0.00, 0.00, -60932.66, -0.03, 0.00, -0.03
108, 16694.21, -8907.59, -39411.80, -41698.77, 0.00, 0.00, 0.00, -61038.23, -0.03, -0.03, 0.00
109, 16699.64, -8908.22, -39428.27, -41695.23, 0.00, 0.00, 0.00, -61007.00, -0.03, -0.03, -0.03
110, 16702.52, -8907.86, -39411.51, -41689.96, 0.00, 0.00, 0.00, -60901.06, -0.03, 0.00, -0.03
111, 16697.56, -8907.37, -39394.79, -41703.86, 0.00, 0.00, 0.00, -60926.61, -0.03, -0.03, -0.03
112, 16689.89, -8908.62, -39407.04, -41718.48, 0.00, 0.00, 0.00, -61036.27, -0.03, -0.03, -0.03
113, 16694.09, -8908.26, -39422.69, -41713.63, 0.00, 0.00, 0.00, -61026.54, -0.03, -0.03, -0.03
114, 16696.04, -8908.65, -39415.07, -41704.51, 0.00, 0.00, 0.00, -60924.35, -0.03, -0.03, -0.03
115, 16691.86, -8908.53, -39396.45, -41708.36, 0.00, 0.00, 0.00, -60918.71, 0.00, 0.00, -0.03
116, 16685.60, -8906.59, -39404.20, -41718.70, 0.00, 0.00, 0.00, -61021.31, 0.00, 0.00, -0.03
117, 16695.61, -8901.65, -39417.10, -41711.35, 0.00, 0.00, 0.00, -61033.71, -0.03, -0.03, 0.00
118, 16702.77, -8900.67, -39407.69, -41697.36, 0.00, 0.00, 0.00, -60930.36, -0.03, -0.03, -0.03
119, 16703.46, -8901.27, -39384.67, -41700.78, 0.00, 0.00, 0.00, -60895.89, -0.03, 0.00, -0.03
120, 16692.91, -8906.10, -39390.23, -41718.10, 0.00, 0.00, 0.00, -61002.74, -0.03, -0.03, -0.03
121, 16688.77, -8908.09, -39408.29, -41716.87, 0.00, 0.00, 0.00, -61049.14, -0.03, -0.03, -0.03
122, 16697.40, -8906.61, -39407.67, -41702.34, 0.00, 0.00, 0.00, -60955.48, 0.00, -0.03, -0.03
123, 16704.22, -8905.47, -39392.13, -41699.50, 0.00, 0.00, 0.00, -60899.72, 0.00, 0.00, -0.03
124, 16693.27, -8907.24, -39401.56, -41712.85, 0.00, 0.00, 0.00, -60990.51, 0.00, -0.03, 0.00
125, 16693.47, -8907.37, -39425.59, -41708.91, 0.00, 0.00, 0.00, -61054.59, 0.00, -0.03, -0.03
126, 16698.83, -8905.38, -39426.93, -41687.57, 0.00, 0.00, 0.00, -60969.54, -0.03, -0.03, -0.03
127, 16702.63, -8902.48, -39402.26, -41677.91, 0.00, 0.00, 0.00, -60883.69, 0.00, -0.03, 0.00
128, 16699.75, -8899.82, -39393.36, -41690.29, 0.00, 0.00, 0.00, -60947.64, -0.03, -0.03, -0.03
129, 16703.41, -8893.87, -39410.64, -41696.48, 0.00, 0.00, 0.00, -61033.18, -0.03, 0.00, 0.00
130, 16711.15, -8891.23, -39420.16, -41689.15, 0.00, 0.00, 0.00, -60984.74, 0.00, -0.03, -0.03
131, 16709.18, -8898.81, -39403.84, -41689.36, 0.00, 0.00, 0.00, -60893.17, 0.00, 0.00, 0.00
132, 16706.54, -8898.14, -39390.01, -41701.09, 0.00, 0.00, 0.00, -60934.65, 0.00, 0.00, 0.00
133, 16703.35, -8898.39, -39406.37, -41709.36, 0.00, 0.00, 0.00, -61036.18, -0.03, -0.03, -0.03
134, 16703.73, -8899.15, -39420.12, -41701.67, 0.00, 0.00, 0.00, -61010.65, 0.00, -0.03, -0.03
135, 16713.90, -8900.04, -39404.96, -41691.66, 0.00, 0.00, 0.00, -60907.99, 0.00, -0.03, -0.03
136, 16712.98, -8901.43, -39387.26, -41700.06, 0.00, 0.00, 0.00, -60920.95, -0.03, 0.00, -0.03
137, 16707.77, -8897.85, -39394.79, -41708.49, 0.00, 0.00, 0.00, -61022.52, -0.03, -0.03, -0.03
138, 16712.44, -8894.74, -39405.66, -41696.78, 0.00, 0.00, 0.00, -61017.02, -0.03, 0.00, -0.03
139, 16712.44, -8895.35, -39396.27, -41685.55, 0.00, 0.00, 0.00, -60914.31, 0.00, -0.03, -0.03
140, 16711.04, -8899.84, -39378.83, -41693.67, 0.00, 0.00, 0.00, -60901.50, -0.03, -0.03, 0.00
141, 16705.54, -8899.41, -39387.55, -41704.98, 0.00, 0.00, 0.00, -61005.57, -0.03, -0.03, 0.00
142, 16708.02, -8893.89, -39409.54, -41694.99, 0.00, 0.00, 0.00, -61029.27, -0.03, -0.03, -0.03
143, 16707.12, -8900.73, -39415.54, -41683.68, 0.00, 0.00, 0.00, -60935.66, -0.03, 0.00, -0.03
144, 16709.40, -8898.70, -39393.72, -41681.00, 0.00, 0.00, 0.00, -60889.19, 0.00, -0.03, -0.03
145, 16708.08, -8899.57, -39393.65, -41693.89, 0.00, 0.00, 0.00, -60978.89, -0.03, -0.03, 0.00
146, 16704.33, -8898.59, -39417.32, -41692.75, 0.00, 0.00, 0.00, -61034.86, -0.03, -0.03, -0.03
147, 16709.16, -8898.23, -39421.48, -41680.13, 0.00, 0.00, 0.00, -60951.17, 0.00, -0.03, -0.03
148, 16715.48, -8897.54, -39397.27, -41677.08, 0.00, 0.00, 0.00, -60880.72, -0.03, -0.03, -0.03
149, 16707.01, -8899.55, -39391.46, -41692.42, 0.00, 0.00, 0.00, -60961.97, -0.03, -0.03, -0.03
150, 16703.70, -8900.17, -39407.78, -41697.60, 0.00, 0.00, 0.00, -61036.64, 0.00, 0.00, -0.03
151, 16706.45, -8903.01, -39415.27, -41686.65, 0.00, 0.00, 0.00, -60971.40, 0.00, -0.03, -0.03
152, 16700.75, -8905.54, -39397.61, -41681.69, 0.00, 0.00, 0.00, -60884.61, -0.03, -0.03, -0.03
153, 16703.53, -8904.08, -39388.49, -41692.37, 0.00, 0.00, 0.00, -60943.57, -0.03, -0.03, -0.03
154, 16702.77, -8903.57, -39406.39, -41701.98, 0.00, 0.00, 0.00, -61038.39, 0.00, 0.00, 0.00
155, 16704.20, -8900.82, -39414.89, -41693.16, 0.00, 0.00, 0.00, -60997.26, -0.03, 0.00, -0.03
156, 16702.86, -8903.97, -39403.00, -41693.85, 0.00, 0.00, 0.00, -60905.95, -0.03, -0.03, 0.00
157, 16701.92, -8904.02, -39386.99, -41704.82, 0.00, 0.00, 0.00, -60938.63, -0.03, 0.00, -0.03
158, 16703.19, -8898.12, -39395.30, -41710.01, 0.00, 0.00, 0.00, -61039.46, 0.00, 0.00, -0.03
159, 16708.08, -8896.60, -39410.75, -41699.23, 0.00, 0.00, 0.00, -61017.58, -0.03, -0.03, -0.03
160, 16713.27, -8898.47, -39399.62, -41685.80, 0.00, 0.00, 0.00, -60909.44, -0.03, -0.03, -0.03
161, 16715.55, -8894.47, -39379.01, -41686.00, 0.00, 0.00, 0.00, -60905.77, 0.00, -0.03, -0.03
162, 16710.32, -8894.23, -39391.64, -41697.51, 0.00, 0.00, 0.00, -61010.70, -0.03, -0.03, -0.03
163, 16713.85, -8887.68, -39410.57, -41689.55, 0.00, 0.00, 0.00, -61019.57, -0.03, 0.00, -0.03
164, 16721.36, -8884.84, -39402.48, -41675.36, 0.00, 0.00, 0.00, -60908.61, 0.00, -0.03, 0.00
165, 16722.72, -8891.28, -39385.92, -41681.46, 0.00, 0.00, 0.00, -60887.96, -0.03, 0.00, -0.03
166, 16715.55, -8889.15, -39388.96, -41692.33, 0.00, 0.00, 0.00, -60992.34, -0.03, -0.03, 0.00
167, 16714.43, -8891.39, -39407.62, -41690.92, 0.00, 0.00, 0.00, -61027.01, 0.00, 0.00, -0.03
168, 16718.90, -8895.37, -39409.28, -41684.15, 0.00, 0.00, 0.00, -60934.41, -0.03, -0.03, 0.00
169, 16722.41, -8893.04, -39392.31, -41686.02, 0.00, 0.00, 0.00, -60889.82, -0.03, 0.00, 0.00
170, 16718.99, -8892.48, -39393.70, -41698.03, 0.00, 0.00, 0.00, -60979.34, 0.00, -0.03, 0.00
171, 16715.64, -8890.76, -39412.88, -41699.19, 0.00, 0.00, 0.00, -61039.64, -0.03, -0.03, 0.00
172, 16726.23, -8881.08, -39408.47, -41679.61, 0.00, 0.00, 0.00, -60950.37, -0.03, 0.00, -0.03
173, 16723.26, -8882.92, -39383.37, -41673.29, 0.00, 0.00, 0.00, -60869.83, 0.00, -0.03, -0.03
174, 16715.10, -8888.53, -39381.92, -41690.59, 0.00, 0.00, 0.00, -60942.68, -0.03, -0.03, 0.00
175, 16717.76, -8889.18, -39402.14, -41697.38, 0.00, 0.00, 0.00, -61026.70, 0.00, 0.00, -0.03
176, 16723.42, -8884.42, -39405.32, -41682.52, 0.00, 0.00, 0.00, -60964.18, -0.03, -0.03, -0.03
177, 16723.08, -8890.00, -39388.46, -41682.31, 0.00, 0.00, 0.00, -60876.85, -0.03, 0.00, -0.03
178, 16717.41, -8890.88, -39379.35, -41698.50, 0.00, 0.00, 0.00, -60932.98, 0.00, 0.00, -0.03
179, 16713.56, -8889.65, -39398.17, -41708.13, 0.00, 0.00, 0.00, -61031.32, -0.03, -0.03, -0.03
180, 16717.45, -8889.04, -39412.50, -41697.31, 0.00, 0.00, 0.00, -60999.27, -0.03, -0.03, -0.03
181, 16716.04, -8895.14, -39400.71, -41690.05, 0.00, 0.00, 0.00, -60897.88, 0.00, -0.03, 0.00
182, 16717.07, -8895.26, -39387.26, -41698.39, 0.00, 0.00, 0.00, -60919.48, -0.03, 0.00, -0.03
183, 16714.59, -8893.25, -39403.15, -41705.92, 0.00, 0.00, 0.00, -61024.04, 0.00, -0.03, -0.03
184, 16716.11, -8890.61, -39418.46, -41693.02, 0.00, 0.00, 0.00, -61012.15, -0.03, -0.03, -0.03
185, 16723.60, -8892.15, -39408.32, -41682.40, 0.00, 0.00, 0.00, -60904.97, -0.03, 0.00, -0.03
186, 16721.81, -8893.78, -39385.98, -41684.68, 0.00, 0.00, 0.00, -60897.48, 0.00, -0.03, -0.03
187, 16716.71, -8893.29, -39396.27, -41694.85, 0.00, 0.00, 0.00, -61001.60, -0.03, -0.03, -0.03
188, 16715.95, -8889.67, -39417.73, -41689.85, 0.00, 0.00, 0.00, -61022.34, -0.03, 0.00, -0.03
189, 16718.70, -8888.42, -39409.10, -41674.47, 0.00, 0.00, 0.00, -60921.38, 0.00, -0.03, -0.03
190, 16721.88, -8891.23, -39387.41, -41677.84, 0.00, 0.00, 0.00, -60890.55, -0.03, 0.00, 0.00
191, 16714.43, -8892.31, -39389.07, -41689.54, 0.00, 0.00, 0.00, -60990.18, -0.03, -0.03, -0.03
192, 16710.72, -8891.84, -39409.01, -41690.38, 0.00, 0.00, 0.00, -61032.42, -0.03, -0.03, 0.00
193, 16719.17, -8896.66, -39407.89, -41681.49, 0.00, 0.00, 0.00, -60940.26, -0.03, -0.03, 0.00
194, 16722.79, -8897.33, -39384.60, -41681.58, 0.00, 0.00, 0.00, -60879.02, 0.00, 0.00, -0.03
195, 16721.90, -8890.45, -39377.09, -41689.49, 0.00, 0.00, 0.00, -60960.07, -0.03, 0.00, -0.03
196, 16722.44, -8888.39, -39391.68, -41691.34, 0.00, 0.00, 0.00, -61024.15, -0.03, -0.03, 0.00
197, 16729.79, -8884.46, -39392.07, -41677.48, 0.00, 0.00, 0.00, -60945.07, 0.00, -0.03, -0.03
198, 16730.75, -8886.96, -39371.86, -41674.67, 0.00, 0.00, 0.00, -60864.36, -0.03, -0.03, 0.00
199, 16722.32, -8893.63, -39367.50, -41689.62, 0.00, 0.00, 0.00, -60935.41, -0.03, 0.00, 0.00
200, 16712.71, -8896.69, -39388.22, -41697.36, 0.00, 0.00, 0.00, -61027.70, 0.00, -0.03, -0.03
201, 16723.69, -8892.69, -39397.05, -41681.55, 0.00, 0.00, 0.00, -60972.63, -0.03, 0.00, 0.00
202, 16725.32, -8890.74, -39380.93, -41672.37, 0.00, 0.00, 0.00, -60873.92, 0.00, -0.03, 0.00
203, 16715.48, -8894.94, -39371.43, -41682.58, 0.00, 0.00, 0.00, -60917.49, -0.03, -0.03, -0.03
204, 16719.53, -8891.34, -39385.61, -41685.18, 0.00, 0.00, 0.00, -61014.27, -0.03, -0.03, -0.03
205, 16721.12, -8890.00, -39399.75, -41672.17, 0.00, 0.00, 0.00, -60985.28, 0.00, -0.03, -0.03
206, 16718.17, -8894.12, -39388.18, -41664.57, 0.00, 0.00, 0.00, -60881.75, 0.00, 0.00, 0.00
207, 16722.77, -8889.38, -39371.16, -41671.00, 0.00, 0.00, 0.00, -60898.38, -0.03, 0.00, -0.03
208, 16725.32, -8886.85, -39381.92, -41682.45, 0.00, 0.00, 0.00, -61003.88, -0.03, 0.00, -0.03
209, 16725.99, -8885.20, -39401.27, -41676.84, 0.00, 0.00, 0.00, -61008.61, -0.03, -0.03, 0.00
210, 16731.89, -8885.04, -39388.89, -41664.37, 0.00, 0.00, 0.00, -60898.53, -0.03, -0.03, 0.00
211, 16730.01, -8886.81, -39366.88, -41668.16, 0.00, 0.00, 0.00, -60882.06, 0.00, -0.03, -0.03
212, 16721.14, -8886.52, -39375.99, -41682.00, 0.00, 0.00, 0.00, -60990.51, 0.00, -0.03, -0.03
213, 16726.88, -8883.68, -39393.27, -41676.08, 0.00, 0.00, 0.00, -61014.47, -0.03, -0.03, 0.00
214, 16728.40, -8886.29, -39386.86, -41660.12, 0.00, 0.00, 0.00, -60909.84, -0.03, -0.03, -0.03
215, 16719.26, -8893.18, -39371.34, -41665.26, 0.00, 0.00, 0.00, -60872.92, 0.00, -0.03, 0.00
216, 16723.82, -8886.58, -39370.72, -41675.18, 0.00, 0.00, 0.00, -60968.76, -0.03, -0.03, -0.03
217, 16723.55, -8881.85, -39388.98, -41674.29, 0.00, 0.00, 0.00, -61021.09, -0.03, 0.00, -0.03
218, 16728.29, -8882.90, -39388.67, -41662.98, 0.00, 0.00, 0.00, -60931.39, 0.00, -0.03, -0.03
219, 16723.66, -8886.11, -39371.81, -41665.98, 0.00, 0.00, 0.00, -60866.32, -0.03, -0.03, -0.03
220, 16723.33, -8883.90, -39369.29, -41680.10, 0.00, 0.00, 0.00, -60946.16, -0.03, -0.03, 0.00
221, 16721.52, -8884.66, -39391.91, -41687.66, 0.00, 0.00, 0.00, -61022.65, -0.03, -0.03, 0.00
222, 16727.55, -8880.88, -39396.49, -41674.07, 0.00, 0.00, 0.00, -60952.33, -0.03, -0.03, -0.03
223, 16730.46, -8882.27, -39378.74, -41666.85, 0.00, 0.00, 0.00, -60867.93, -0.03, 0.00, -0.03
224, 16721.88, -8886.99, -39371.05, -41678.00, 0.00, 0.00, 0.00, -60927.88, -0.03, -0.03, 0.00
225, 16720.91, -8885.56, -39387.37, -41684.97, 0.00, 0.00, 0.00, -61019.41, 0.00, -0.03, 0.00
226, 16719.98, -8887.21, -39399.17, -41672.57, 0.00, 0.00, 0.00, -60974.77, 0.00, -0.03, -0.03
227, 16723.78, -8890.32, -39384.55, -41663.49, 0.00, 0.00, 0.00, -60876.96, -0.03, -0.03, -0.03
228, 16722.93, -8886.79, -39374.07, -41673.29, 0.00, 0.00, 0.00, -60913.22, 0.00, -0.03, -0.03
229, 16716.33, -8886.45, -39393.63, -41685.00, 0.00, 0.00, 0.00, -61021.78, -0.03, -0.03, -0.03
230, 16714.41, -8889.31, -39409.95, -41676.48, 0.00, 0.00, 0.00, -61003.63, 0.00, 0.00, -0.03
231, 16722.48, -8889.38, -39393.85, -41660.83, 0.00, 0.00, 0.00, -60892.92, -0.03, -0.03, -0.03
232, 16720.47, -8889.04, -39376.78, -41669.21, 0.00, 0.00, 0.00, -60898.15, -0.03, -0.03, -0.03
233, 16707.28, -8893.83, -39392.09, -41686.83, 0.00, 0.00, 0.00, -61012.95, -0.03, -0.03, 0.00
234, 16712.80, -8889.49, -39406.71, -41678.74, 0.00, 0.00, 0.00, -61020.53, -0.03, 0.00, -0.03
235, 16727.24, -8888.86, -39393.54, -41663.07, 0.00, 0.00, 0.00, -60908.17, -0.03, -0.03, -0.03
236, 16727.33, -8890.05, -39369.51, -41665.39, 0.00, 0.00, 0.00, -60876.45, 0.00, 0.00, 0.00
237, 16717.99, -8894.59, -39373.85, -41680.55, 0.00, 0.00, 0.00, -60978.93, -0.03, -0.03, 0.00
238, 16719.95, -8891.39, -39391.64, -41676.59, 0.00, 0.00, 0.00, -61016.15, -0.03, -0.03, -0.03
239, 16729.86, -8888.60, -39385.89, -41663.47, 0.00, 0.00, 0.00, -60915.92, 0.00, -0.03, 0.00
240, 16729.45, -8887.63, -39364.13, -41663.58, 0.00, 0.00, 0.00, -60863.51, -0.03, 0.00, -0.03
241, 16726.14, -8886.29, -39365.60, -41677.71, 0.00, 0.00, 0.00, -60957.07, -0.03, 0.00, -0.03
242, 16722.79, -8887.81, -39386.61, -41679.68, 0.00, 0.00, 0.00, -61017.45, 0.00, -0.03, 0.00
