%OpenBCI Raw EEG Data
%
%Sample Rate = 250.0 Hz
%First Column = SampleIndex
%Other Columns = EEG data in microvolts followed by Accel Data (in G) interleaved with Aux Data
0, 15924.77, -10330.89, -38979.41, -42103.02, 0.00, 0.00, 0.00, -61743.92, -0.03, -0.03, -0.03
1, 15926.96, -10329.54, -38961.57, -42094.46, 0.00, 0.00, 0.00, -61647.11, -0.03, -0.03, -0.03
2, 15916.27, -10328.43, -38992.66, -42102.21, 0.00, 0.00, 0.00, -61773.16, -0.03, 0.00, -0.03
3, 15915.18, -10326.55, -39010.83, -42102.23, 0.00, 0.00, 0.00, -61877.34, -0.03, 0.00, -0.03
4, 15922.89, -10326.53, -38984.84, -42089.61, 0.00, 0.00, 0.00, -61767.23, -0.03, -0.03, -0.03
5, 15917.66, -10336.27, -38975.09, -42094.28, 0.00, 0.00, 0.00, -61663.14, -0.03, -0.03, 0.00
6, 15908.58, -10334.04, -39000.33, -42107.29, 0.00, 0.00, 0.00, -61762.09, -0.03, -0.03, -0.03
7, 15902.33, -10332.76, -39024.63, -42115.82, 0.00, 0.00, 0.00, -61891.49, 0.00, 0.00, -0.03
8, 15916.88, -10328.65, -38994.07, -42099.51, 0.00, 0.00, 0.00, -61800.31, 0.00, -0.03, -0.03
9, 15916.92, -10337.39, -38968.57, -42089.61, 0.00, 0.00, 0.00, -61662.63, -0.03, 0.00, -0.03
10, 15915.78, -10331.67, -38979.86, -42087.62, 0.00, 0.00, 0.00, -61717.14, -0.03, 0.00, -0.03
11, 15912.12, -10326.86, -39007.01, -42098.59, 0.00, 0.00, 0.00, -61863.91, 0.00, 0.00, 0.00
12, 15915.87, -10328.23, -38989.44, -42095.31, 0.00, 0.00, 0.00, -61816.30, 0.00, -0.03, -0.03
13, 15920.28, -10332.47, -38957.59, -42083.44, 0.00, 0.00, 0.00, -61660.95, 0.00, -0.03, -0.03
14, 15921.88, -10326.77, -38962.33, -42085.34, 0.00, 0.00, 0.00, -61679.57, -0.03, -0.03, -0.03
15, 15911.74, -10328.61, -39001.96, -42107.94, 0.00, 0.00, 0.00, -61847.57, 0.00, 0.00, -0.03
16, 15915.29, -10328.38, -38994.63, -42108.61, 0.00, 0.00, 0.00, -61844.77, 0.00, 0.00, -0.03
17, 15915.20, -10336.63, -38953.34, -42095.64, 0.00, 0.00, 0.00, -61681.00, 0.00, -0.03, 0.00
18, 15908.32, -10346.71, -38958.22, -42107.09, 0.00, 0.00, 0.00, -61669.27, 0.00, 0.00, 0.00
19, 15902.55, -10343.85, -39002.77, -42129.77, 0.00, 0.00, 0.00, -61836.68, 0.00, 0.00, 0.00
20, 15899.98, -10340.72, -39012.96, -42131.90, 0.00, 0.00, 0.00, -61882.05, -0.03, -0.03, -0.03
21, 15911.51, -10340.14, -38979.45, -42111.94, 0.00, 0.00, 0.00, -61730.04, -0.03, -0.03, 0.00
22, 15911.60, -10339.72, -38967.27, -42104.07, 0.00, 0.00, 0.00, -61665.29, -0.03, 0.00, 0.00
23, 15903.76, -10337.14, -38998.09, -42110.68, 0.00, 0.00, 0.00, -61806.80, -0.03, -0.03, -0.03
24, 15901.72, -10336.00, -39009.87, -42111.33, 0.00, 0.00, 0.00, -61877.90, 0.00, -0.03, -0.03
25, 15912.30, -10334.87, -38981.31, -42096.83, 0.00, 0.00, 0.00, -61745.08, 0.00, 0.00, 0.00
26, 15915.74, -10336.36, -38965.55, -42089.79, 0.00, 0.00, 0.00, -61648.81, 0.00, -0.03, 0.00
27, 15911.56, -10332.25, -38991.23, -42097.77, 0.00, 0.00, 0.00, -61767.59, -0.03, -0.03, 0.00
28, 15904.45, -10336.27, -39017.32, -42106.57, 0.00, 0.00, 0.00, -61882.41, -0.03, -0.03, -0.03
29, 15909.66, -10337.28, -38994.20, -42097.21, 0.00, 0.00, 0.00, -61783.19, -0.03, 0.00, -0.03
30, 15912.59, -10339.54, -38963.92, -42081.11, 0.00, 0.00, 0.00, -61649.06, -0.03, 0.00, -0.03
31, 15894.75, -10349.21, -38987.63, -42093.39, 0.00, 0.00, 0.00, -61737.06, -0.03, -0.03, -0.03
32, 15888.42, -10348.81, -39017.34, -42104.63, 0.00, 0.00, 0.00, -61875.93, -0.03, -0.03, 0.00
33, 15895.35, -10348.21, -39002.90, -42097.23, 0.00, 0.00, 0.00, -61808.63, -0.03, -0.03, 0.00
34, 15891.51, -10361.98, -38983.65, -42097.14, 0.00, 0.00, 0.00, -61673.91, 0.00, -0.03, 0.00
35, 15891.04, -10352.75, -38988.95, -42093.23, 0.00, 0.00, 0.00, -61716.34, -0.03, -0.03, -0.03
36, 15894.41, -10340.52, -39007.30, -42088.45, 0.00, 0.00, 0.00, -61855.34, 0.00, -0.03, 0.00
37, 15893.90, -10344.66, -38998.25, -42085.56, 0.00, 0.00, 0.00, -61825.86, -0.03, -0.03, -0.03
38, 15900.54, -10347.49, -38964.72, -42076.84, 0.00, 0.00, 0.00, -61671.79, 0.00, 0.00, -0.03
39, 15891.04, -10355.14, -38979.30, -42093.68, 0.00, 0.00, 0.00, -61692.42, -0.03, 0.00, 0.00
40, 15886.37, -10348.05, -39013.23, -42103.33, 0.00, 0.00, 0.00, -61855.10, -0.03, 0.00, -0.03
41, 15884.96, -10353.69, -39019.08, -42109.55, 0.00, 0.00, 0.00, -61870.21, -0.03, 0.00, 0.00
42, 15890.10, -10358.18, -38984.82, -42092.56, 0.00, 0.00, 0.00, -61712.89, 0.00, 0.00, -0.03
43, 15893.83, -10354.49, -38974.87, -42086.25, 0.00, 0.00, 0.00, -61670.74, -0.03, 0.00, 0.00
44, 15880.40, -10358.11, -39016.73, -42111.02, 0.00, 0.00, 0.00, -61832.86, 0.00, -0.03, -0.03
45, 15885.32, -10348.10, -39021.29, -42112.85, 0.00, 0.00, 0.00, -61884.02, -0.03, -0.03, 0.00
46, 15902.46, -10341.84, -38987.61, -42096.25, 0.00, 0.00, 0.00, -61738.29, -0.03, -0.03, 0.00
47, 15908.65, -10338.93, -38971.52, -42087.64, 0.00, 0.00, 0.00, -61659.52, -0.03, -0.03, 0.00
48, 15881.32, -10356.64, -39017.96, -42119.54, 0.00, 0.00, 0.00, -61812.23, -0.03, -0.03, -0.03
49, 15885.90, -10349.08, -39023.53, -42116.92, 0.00, 0.00, 0.00, -61891.46, -0.03, -0.03, -0.03
50, 15897.16, -10345.68, -38993.29, -42102.01, 0.00, 0.00, 0.00, -61767.19, -0.03, 0.00, 0.00
51, 15901.81, -10344.10, -38972.70, -42092.13, 0.00, 0.00, 0.00, -61659.21, 0.00, -0.03, -0.03
52, 15900.76, -10334.75, -38993.06, -42099.44, 0.00, 0.00, 0.00, -61760.46, -0.03, -0.03, -0.03
53, 15904.00, -10325.50, -39012.02, -42106.68, 0.00, 0.00, 0.00, -61875.57, 0.00, -0.03, 0.00
54, 15905.01, -10332.92, -38991.43, -42096.22, 0.00, 0.00, 0.00, -61783.28, -0.03, 0.00, -0.03
55, 15904.99, -10340.88, -38964.99, -42081.58, 0.00, 0.00, 0.00, -61650.45, -0.03, -0.03, 0.00
56, 15904.18, -10336.43, -38982.92, -42089.16, 0.00, 0.00, 0.00, -61727.49, 0.00, -0.03, 0.00
57, 15899.73, -10330.39, -39012.64, -42100.11, 0.00, 0.00, 0.00, -61872.71, -0.03, -0.03, 0.00
58, 15900.90, -10332.63, -38998.52, -42092.51, 0.00, 0.00, 0.00, -61813.90, 0.00, -0.03, -0.03
59, 15901.57, -10346.55, -38974.87, -42086.63, 0.00, 0.00, 0.00, -61672.95, -0.03, 0.00, -0.03
60, 15897.10, -10345.55, -38985.44, -42091.95, 0.00, 0.00, 0.00, -61712.63, 0.00, 0.00, 0.00
61, 15895.44, -10336.70, -39012.69, -42099.69, 0.00, 0.00, 0.00, -61860.37, -0.03, -0.03, -0.03
62, 15896.31, -10340.16, -39006.21, -42096.69, 0.00, 0.00, 0.00, -61841.33, -0.03, 0.00, -0.03
63, 15897.10, -10352.68, -38977.21, -42085.70, 0.00, 0.00, 0.00, -61689.02, -0.03, -0.03, -0.03
64, 15889.70, -10358.60, -38984.50, -42091.55, 0.00, 0.00, 0.00, -61695.53, -0.03, -0.03, 0.00
65, 15879.57, -10357.71, -39025.72, -42112.59, 0.00, 0.00, 0.00, -61864.02, -0.03, 0.00, -0.03
66, 15881.79, -10355.14, -39026.46, -42116.74, 0.00, 0.00, 0.00, -61889.65, -0.03, 0.00, -0.03
67, 15881.74, -10363.43, -38998.03, -42113.12, 0.00, 0.00, 0.00, -61744.73, 0.00, -0.03, -0.03
68, 15874.48, -10370.85, -38994.16, -42116.74, 0.00, 0.00, 0.00, -61702.48, -0.03, -0.03, -0.03
69, 15870.32, -10364.44, -39024.56, -42128.81, 0.00, 0.00, 0.00, -61846.76, 0.00, -0.03, -0.03
70, 15871.10, -10362.18, -39035.02, -42131.56, 0.00, 0.00, 0.00, -61906.35, 0.00, -0.03, -0.03
71, 15873.52, -10368.79, -39010.70, -42121.30, 0.00, 0.00, 0.00, -61765.22, -0.03, -0.03, 0.00
72, 15884.13, -10365.33, -38990.07, -42109.14, 0.00, 0.00, 0.00, -61678.72, -0.03, -0.03, -0.03
73, 15884.11, -10354.00, -39005.85, -42110.62, 0.00, 0.00, 0.00, -61802.10, 0.00, -0.03, -0.03
74, 15877.11, -10355.70, -39028.74, -42119.22, 0.00, 0.00, 0.00, -61899.15, -0.03, -0.03, -0.03
75, 15886.03, -10354.36, -39000.13, -42103.18, 0.00, 0.00, 0.00, -61777.36, -0.03, -0.03, 0.00
76, 15888.29, -10354.83, -38976.59, -42090.28, 0.00, 0.00, 0.00, -61661.06, 0.00, 0.00, -0.03
77, 15887.53, -10347.34, -38994.83, -42096.47, 0.00, 0.00, 0.00, -61761.96, -0.03, -0.03, -0.03
78, 15882.79, -10350.02, -39023.55, -42110.95, 0.00, 0.00, 0.00, -61894.35, -0.03, -0.03, -0.03
79, 15876.26, -10363.86, -39010.43, -42103.09, 0.00, 0.00, 0.00, -61811.02, -0.03, -0.03, 0.00
80, 15892.92, -10354.09, -38971.32, -42071.52, 0.00, 0.00, 0.00, -61656.17, 0.00, -0.03, -0.03
81, 15882.10, -10358.45, -38989.29, -42076.58, 0.00, 0.00, 0.00, -61720.45, -0.03, 0.00, 0.00
82, 15883.04, -10345.64, -39008.13, -42076.53, 0.00, 0.00, 0.00, -61859.50, 0.00, -0.03, -0.03
83, 15891.84, -10344.43, -38988.71, -42067.77, 0.00, 0.00, 0.00, -61800.94, 0.00, 0.00, 0.00
84, 15898.28, -10349.77, -38954.86, -42063.50, 0.00, 0.00, 0.00, -61647.09, -0.03, 0.00, -0.03
85, 15890.95, -10352.66, -38962.22, -42075.50, 0.00, 0.00, 0.00, -61676.53, 0.00, 0.00, -0.03
86, 15881.94, -10350.35, -38995.86, -42091.51, 0.00, 0.00, 0.00, -61836.12, 0.00, -0.03, -0.03
87, 15881.05, -10352.68, -38994.72, -42096.76, 0.00, 0.00, 0.00, -61832.12, -0.03, -0.03, -0.03
88, 15891.44, -10352.19, -38958.13, -42084.91, 0.00, 0.00, 0.00, -61675.37, 0.00, -0.03, -0.03
89, 15892.07, -10349.80, -38958.15, -42089.29, 0.00, 0.00, 0.00, -61661.84, -0.03, 0.00, -0.03
90, 15882.70, -10351.92, -39001.09, -42110.42, 0.00, 0.00, 0.00, -61830.15, -0.03, -0.03, 0.00
91, 15874.95, -10358.74, -39015.59, -42118.51, 0.00, 0.00, 0.00, -61871.13, -0.03, 0.00, 0.00
92, 15878.08, -10367.52, -38989.00, -42107.06, 0.00, 0.00, 0.00, -61730.84, -0.03, -0.03, 0.00
93, 15874.45, -10373.42, -38985.57, -42105.14, 0.00, 0.00, 0.00, -61680.73, -0.03, -0.03, 0.00
94, 15866.65, -10369.64, -39018.28, -42116.34, 0.00, 0.00, 0.00, -61829.75, -0.03, -0.03, -0.03
95, 15863.19, -10369.87, -39037.36, -42122.60, 0.00, 0.00, 0.00, -61906.89, -0.03, -0.03, 0.00
96, 15864.53, -10377.42, -39016.38, -42116.74, 0.00, 0.00, 0.00, -61778.68, -0.03, -0.03, -0.03
97, 15878.68, -10369.62, -38988.82, -42097.23, 0.00, 0.00, 0.00, -61675.48, 0.00, -0.03, -0.03
98, 15871.66, -10369.78, -39018.59, -42108.02, 0.00, 0.00, 0.00, -61803.35, -0.03, -0.03, 0.00
99, 15885.12, -10351.76, -39025.34, -42105.70, 0.00, 0.00, 0.00, -61899.36, -0.03, 0.00, -0.03
100, 15882.46, -10367.57, -39008.40, -42110.19, 0.00, 0.00, 0.00, -61798.21, 0.00, -0.03, -0.03
101, 15888.60, -10367.59, -38980.14, -42096.58, 0.00, 0.00, 0.00, -61671.90, 0.00, -0.03, -0.03
102, 15883.24, -10364.12, -39002.41, -42105.63, 0.00, 0.00, 0.00, -61764.89, -0.03, -0.03, -0.03
103, 15882.66, -10357.19, -39026.64, -42114.13, 0.00, 0.00, 0.00, -61899.73, -0.03, 0.00, -0.03
104, 15897.19, -10349.73, -38997.51, -42096.25, 0.00, 0.00, 0.00, -61815.11, -0.03, -0.03, -0.03
105, 15901.79, -10352.14, -38966.22, -42085.14, 0.00, 0.00, 0.00, -61669.60, 0.00, 0.00, -0.03
106, 15901.90, -10347.16, -38976.43, -42090.43, 0.00, 0.00, 0.00, -61721.70, -0.03, -0.03, -0.03
107, 15894.06, -10345.46, -39010.83, -42109.41, 0.00, 0.00, 0.00, -61876.24, 0.00, 0.00, 0.00
108, 15895.93, -10349.71, -39005.85, -42112.45, 0.00, 0.00, 0.00, -61844.28, -0.03, -0.03, -0.03
109, 15906.08, -10347.20, -38967.85, -42096.40, 0.00, 0.00, 0.00, -61681.04, 0.00, 0.00, 0.00
110, 15901.50, -10352.10, -38981.33, -42107.04, 0.00, 0.00, 0.00, -61703.75, -0.03, 0.00, -0.03
111, 15902.91, -10339.56, -39014.59, -42118.22, 0.00, 0.00, 0.00, -61864.64, -0.03, 0.00, 0.00
112, 15903.89, -10339.89, -39017.50, -42120.88, 0.00, 0.00, 0.00, -61872.55, -0.03, 0.00, -0.03
113, 15905.75, -10348.54, -38989.42, -42110.39, 0.00, 0.00, 0.00, -61721.05, 0.00, 0.00, -0.03
114, 15897.07, -10355.16, -38988.53, -42110.39, 0.00, 0.00, 0.00, -61696.85, 0.00, -0.03, -0.03
115, 15892.63, -10346.82, -39016.04, -42112.00, 0.00, 0.00, 0.00, -61849.27, -0.03, -0.03, -0.03
116, 15873.49, -10365.08, -39042.75, -42132.03, 0.00, 0.00, 0.00, -61910.62, -0.03, 0.00, -0.03
117, 15868.13, -10377.85, -39022.39, -42123.09, 0.00, 0.00, 0.00, -61770.43, 0.00, -0.03, 0.00
118, 15876.94, -10368.59, -38999.79, -42098.19, 0.00, 0.00, 0.00, -61690.70, 0.00, -0.03, -0.03
119, 15866.03, -10368.95, -39032.36, -42113.86, 0.00, 0.00, 0.00, -61833.62, 0.00, 0.00, 0.00
120, 15872.06, -10361.82, -39041.93, -42114.11, 0.00, 0.00, 0.00, -61908.68, -0.03, 0.00, -0.03
121, 15890.64, -10355.58, -39006.77, -42092.29, 0.00, 0.00, 0.00, -61771.93, -0.03, -0.03, -0.03
122, 15882.46, -10364.93, -38997.13, -42091.44, 0.00, 0.00, 0.00, -61675.43, -0.03, -0.03, -0.03
123, 15876.76, -10362.65, -39020.04, -42098.14, 0.00, 0.00, 0.00, -61789.96, 0.00, -0.03, 0.00
124, 15881.32, -10351.63, -39037.03, -42100.40, 0.00, 0.00, 0.00, -61901.93, -0.03, 0.00, -0.03
125, 15893.45, -10346.94, -39003.01, -42085.92, 0.00, 0.00, 0.00, -61792.78, 0.00, -0.03, -0.03
126, 15899.29, -10353.80, -38974.22, -42084.36, 0.00, 0.00, 0.00, -61662.52, -0.03, -0.03, -0.03
127, 15889.07, -10356.95, -39000.15, -42102.73, 0.00, 0.00, 0.00, -61751.99, -0.03, -0.03, -0.03
128, 15885.85, -10349.35, -39025.63, -42113.14, 0.00, 0.00, 0.00, -61893.07, -0.03, 0.00, 0.00
129, 15887.78, -10354.27, -39009.92, -42110.95, 0.00, 0.00, 0.00, -61826.46, -0.03, -0.03, 0.00
130, 15896.92, -10353.84, -38976.99, -42097.21, 0.00, 0.00, 0.00, -61674.77, -0.03, -0.03, -0.03
131, 15902.28, -10341.86, -38981.46, -42095.46, 0.00, 0.00, 0.00, -61717.84, 0.00, 0.00, -0.03
132, 15890.93, -10345.39, -39018.30, -42119.47, 0.00, 0.00, 0.00, -61880.89, 0.00, -0.03, -0.03
133, 15883.66, -10355.32, -39018.01, -42126.60, 0.00, 0.00, 0.00, -61864.29, -0.03, 0.00, -0.03
134, 15900.56, -10352.12, -38978.56, -42106.39, 0.00, 0.00, 0.00, -61700.51, -0.03, -0.03, 0.00
135, 15890.26, -10358.94, -38989.20, -42113.79, 0.00, 0.00, 0.00, -61712.40, -0.03, -0.03, -0.03
136, 15884.51, -10352.63, -39023.26, -42119.36, 0.00, 0.00, 0.00, -61874.30, -0.03, -0.03, -0.03
137, 15901.59, -10337.48, -39015.68, -42104.09, 0.00, 0.00, 0.00, -61876.80, -0.03, -0.03, 0.00
138, 15890.86, -10355.25, -39000.98, -42103.09, 0.00, 0.00, 0.00, -61734.13, -0.03, 0.00, -0.03
139, 15881.83, -10367.25, -39004.13, -42107.38, 0.00, 0.00, 0.00, -61707.38, -0.03, -0.03, -0.03
140, 15867.91, -10372.35, -39039.67, -42124.81, 0.00, 0.00, 0.00, -61867.41, -0.03, 0.00, 0.00
141, 15870.90, -10365.20, -39041.21, -42122.49, 0.00, 0.00, 0.00, -61917.97, -0.03, -0.03, -0.03
142, 15879.53, -10365.02, -39010.25, -42111.00, 0.00, 0.00, 0.00, -61778.34, -0.03, -0.03, -0.03
143, 15883.62, -10363.16, -38995.52, -42102.57, 0.00, 0.00, 0.00, -61702.55, -0.03, -0.03, -0.03
144, 15874.28, -10362.18, -39027.06, -42114.91, 0.00, 0.00, 0.00, -61836.14, 0.00, -0.03, -0.03
145, 15877.67, -10352.79, -39042.06, -42119.04, 0.00, 0.00, 0.00, -61924.37, 0.00, -0.03, -0.03
146, 15880.74, -10358.18, -39022.39, -42117.79, 0.00, 0.00, 0.00, -61810.55, -0.03, -0.03, -0.03
147, 15887.91, -10356.19, -39001.25, -42113.90, 0.00, 0.00, 0.00, -61701.34, -0.03, -0.03, 0.00
148, 15879.37, -10356.50, -39030.30, -42134.36, 0.00, 0.00, 0.00, -61812.72, -0.03, -0.03, 0.00
149, 15881.76, -10347.45, -39052.14, -42134.76, 0.00, 0.00, 0.00, -61927.76, 0.00, 0.00, -0.03
150, 15891.62, -10346.38, -39026.39, -42116.88, 0.00, 0.00, 0.00, -61828.97, 0.00, -0.03, 0.00
151, 15894.77, -10350.18, -38998.90, -42106.57, 0.00, 0.00, 0.00, -61691.08, 0.00, -0.03, -0.03
152, 15899.38, -10338.33, -39005.52, -42105.19, 0.00, 0.00, 0.00, -61747.38, -0.03, -0.03, -0.03
153, 15891.73, -10336.83, -39039.62, -42123.31, 0.00, 0.00, 0.00, -61899.73, 0.00, 0.00, -0.03
154, 15907.49, -10330.75, -39018.88, -42109.41, 0.00, 0.00, 0.00, -61838.60, 0.00, -0.03, -0.03
155, 15899.67, -10348.48, -38995.66, -42109.81, 0.00, 0.00, 0.00, -61695.46, -0.03, -0.03, -0.03
156, 15895.78, -10347.99, -38998.52, -42113.01, 0.00, 0.00, 0.00, -61727.96, -0.03, 0.00, -0.03
157, 15891.96, -10343.67, -39027.69, -42121.57, 0.00, 0.00, 0.00, -61882.16, -0.03, 0.00, 0.00
158, 15900.32, -10333.97, -39019.80, -42112.47, 0.00, 0.00, 0.00, -61864.98, 0.00, 0.00, -0.03
159, 15913.19, -10335.47, -38987.77, -42097.36, 0.00, 0.00, 0.00, -61704.52, -0.03, -0.03, 0.00
160, 15908.43, -10338.60, -38989.20, -42097.30, 0.00, 0.00, 0.00, -61697.16, -0.03, -0.03, 0.00
161, 15901.28, -10334.57, -39022.16, -42107.15, 0.00, 0.00, 0.00, -61855.79, -0.03, 0.00, -0.03
162, 15894.19, -10340.88, -39030.04, -42110.68, 0.00, 0.00, 0.00, -61888.96, 0.00, -0.03, 0.00
163, 15902.17, -10341.30, -38990.74, -42088.27, 0.00, 0.00, 0.00, -61729.01, -0.03, -0.03, 0.00
164, 15903.04, -10340.52, -38977.62, -42076.60, 0.00, 0.00, 0.00, -61672.21, 0.00, -0.03, -0.03
165, 15883.64, -10350.58, -39024.71, -42101.03, 0.00, 0.00, 0.00, -61833.33, 0.00, 0.00, 0.00
166, 15881.00, -10348.39, -39035.96, -42098.75, 0.00, 0.00, 0.00, -61897.48, -0.03, -0.03, -0.03
167, 15882.46, -10356.73, -39009.02, -42085.61, 0.00, 0.00, 0.00, -61761.51, -0.03, -0.03, 0.00
168, 15878.14, -10365.20, -38998.56, -42086.52, 0.00, 0.00, 0.00, -61683.14, -0.03, -0.03, 0.00
169, 15870.83, -10360.93, -39027.53, -42106.71, 0.00, 0.00, 0.00, -61813.84, -0.03, -0.03, 0.00
170, 15881.34, -10344.39, -39035.11, -42104.56, 0.00, 0.00, 0.00, -61907.11, -0.03, -0.03, 0.00
171, 15885.45, -10347.74, -39011.66, -42096.13, 0.00, 0.00, 0.00, -61792.22, -0.03, -0.03, -0.03
172, 15886.23, -10359.59, -39002.09, -42102.06, 0.00, 0.00, 0.00, -61684.69, -0.03, 0.00, 0.00
173, 15879.19, -10358.04, -39031.33, -42117.35, 0.00, 0.00, 0.00, -61790.23, -0.03, -0.03, -0.03
174, 15887.87, -10343.43, -39050.48, -42119.07, 0.00, 0.00, 0.00, -61914.93, 0.00, 0.00, 0.00
175, 15896.47, -10342.06, -39026.61, -42110.44, 0.00, 0.00, 0.00, -61829.33, 0.00, 0.00, -0.03
176, 15895.06, -10353.60, -39003.64, -42110.21, 0.00, 0.00, 0.00, -61694.66, -0.03, -0.03, -0.03
177, 15875.57, -10366.49, -39030.77, -42132.34, 0.00, 0.00, 0.00, -61768.73, -0.03, 0.00, 0.00
178, 15875.08, -10359.50, -39058.60, -42143.30, 0.00, 0.00, 0.00, -61917.70, -0.03, 0.00, -0.03
179, 15884.89, -10352.48, -39038.75, -42129.21, 0.00, 0.00, 0.00, -61863.34, -0.03, -0.03, -0.03
180, 15897.25, -10349.80, -38998.52, -42107.29, 0.00, 0.00, 0.00, -61700.67, -0.03, -0.03, 0.00
181, 15900.43, -10340.97, -38999.46, -42103.00, 0.00, 0.00, 0.00, -61719.36, 0.00, -0.03, -0.03
182, 15892.72, -10337.70, -39038.35, -42117.41, 0.00, 0.00, 0.00, -61884.98, 0.00, -0.03, -0.03
183, 15896.18, -10338.04, -39031.44, -42112.52, 0.00, 0.00, 0.00, -61876.53, -0.03, -0.03, 0.00
184, 15894.73, -10353.80, -38999.30, -42100.38, 0.00, 0.00, 0.00, -61720.47, -0.03, 0.00, -0.03
185, 15892.16, -10353.06, -38990.14, -42090.64, 0.00, 0.00, 0.00, -61694.70, 0.00, 0.00, 0.00
186, 15878.25, -10355.54, -39028.43, -42105.25, 0.00, 0.00, 0.00, -61856.82, 0.00, -0.03, -0.03
187, 15882.72, -10352.95, -39035.73, -42101.45, 0.00, 0.00, 0.00, -61894.71, 0.00, -0.03, 0.00
188, 15890.70, -10355.03, -39002.27, -42085.05, 0.00, 0.00, 0.00, -61742.16, 0.00, -0.03, 0.00
189, 15890.10, -10356.73, -38993.29, -42082.10, 0.00, 0.00, 0.00, -61683.14, 0.00, 0.00, -0.03
190, 15877.18, -10357.82, -39028.25, -42098.37, 0.00, 0.00, 0.00, -61832.30, 0.00, 0.00, -0.03
191, 15879.37, -10352.95, -39038.13, -42103.91, 0.00, 0.00, 0.00, -61906.98, -0.03, 0.00, 0.00
192, 15892.34, -10348.97, -39001.63, -42091.04, 0.00, 0.00, 0.00, -61767.41, -0.03, -0.03, 0.00
193, 15899.20, -10344.72, -38976.88, -42080.71, 0.00, 0.00, 0.00, -61664.93, -0.03, 0.00, -0.03
194, 15895.76, -10337.88, -39006.77, -42092.16, 0.00, 0.00, 0.00, -61784.73, 0.00, 0.00, 0.00
195, 15883.62, -10343.92, -39043.11, -42111.54, 0.00, 0.00, 0.00, -61903.64, -0.03, -0.03, -0.03
196, 15882.43, -10355.54, -39032.80, -42113.23, 0.00, 0.00, 0.00, -61810.62, -0.03, 0.00, -0.03
197, 15893.79, -10349.73, -38998.63, -42096.52, 0.00, 0.00, 0.00, -61675.55, -0.03, -0.03, -0.03
198, 15884.58, -10348.01, -39019.11, -42109.21, 0.00, 0.00, 0.00, -61768.24, -0.03, 0.00, 0.00
199, 15886.84, -10339.89, -39047.29, -42116.99, 0.00, 0.00, 0.00, -61901.95, -0.03, 0.00, -0.03
200, 15891.46, -10337.21, -39028.69, -42102.84, 0.00, 0.00, 0.00, -61826.22, 0.00, -0.03, 0.00
201, 15892.69, -10342.89, -39000.89, -42092.54, 0.00, 0.00, 0.00, -61683.41, 0.00, 0.00, -0.03
202, 15891.60, -10337.44, -39006.14, -42091.62, 0.00, 0.00, 0.00, -61726.66, -0.03, -0.03, -0.03
203, 15890.88, -10332.63, -39034.95, -42103.53, 0.00, 0.00, 0.00, -61882.34, 0.00, -0.03, -0.03
204, 15887.26, -10343.05, -39032.92, -42106.73, 0.00, 0.00, 0.00, -61853.89, 0.00, -0.03, 0.00
205, 15894.19, -10347.76, -39001.87, -42092.09, 0.00, 0.00, 0.00, -61699.57, -0.03, 0.00, -0.03
206, 15909.46, -10329.50, -38988.71, -42073.78, 0.00, 0.00, 0.00, -61694.77, 0.00, 0.00, -0.03
207, 15894.82, -10331.51, -39029.07, -42089.92, 0.00, 0.00, 0.00, -61860.15, -0.03, 0.00, -0.03
208, 15889.77, -10337.84, -39031.69, -42087.35, 0.00, 0.00, 0.00, -61868.78, 0.00, -0.03, -0.03
209, 15891.40, -10345.55, -38997.60, -42073.11, 0.00, 0.00, 0.00, -61713.63, 0.00, 0.00, -0.03
210, 15886.21, -10349.04, -38989.38, -42074.50, 0.00, 0.00, 0.00, -61685.22, 0.00, 0.00, -0.03
211, 15872.26, -10354.42, -39025.83, -42099.60, 0.00, 0.00, 0.00, -61847.74, -0.03, -0.03, -0.03
212, 15868.06, -10357.71, -39035.55, -42111.82, 0.00, 0.00, 0.00, -61896.09, 0.00, 0.00, -0.03
213, 15874.86, -10364.64, -39000.30, -42099.46, 0.00, 0.00, 0.00, -61745.86, 0.00, -0.03, -0.03
214, 15877.47, -10362.67, -38983.79, -42090.73, 0.00, 0.00, 0.00, -61670.23, -0.03, -0.03, -0.03
215, 15877.99, -10350.02, -39013.09, -42095.75, 0.00, 0.00, 0.00, -61799.84, 0.00, -0.03, -0.03
216, 15883.01, -10340.18, -39029.16, -42094.84, 0.00, 0.00, 0.00, -61881.43, -0.03, 0.00, -0.03
217, 15886.93, -10347.07, -39009.43, -42088.22, 0.00, 0.00, 0.00, -61761.54, 0.00, -0.03, 0.00
218, 15880.44, -10357.33, -38997.00, -42091.60, 0.00, 0.00, 0.00, -61664.48, -0.03, -0.03, -0.03
219, 15874.25, -10353.19, -39023.21, -42105.86, 0.00, 0.00, 0.00, -61786.50, 0.00, -0.03, -0.03
220, 15875.88, -10349.01, -39048.30, -42113.39, 0.00, 0.00, 0.00, -61910.11, -0.03, -0.03, -0.03
221, 15885.00, -10350.44, -39028.22, -42104.88, 0.00, 0.00, 0.00, -61816.83, -0.03, 0.00, -0.03
222, 15893.57, -10346.38, -38996.66, -42086.23, 0.00, 0.00, 0.00, -61680.11, -0.03, -0.03, -0.03
223, 15884.94, -10349.64, -39015.10, -42092.82, 0.00, 0.00, 0.00, -61755.43, 0.00, 0.00, -0.03
224, 15884.20, -10342.53, -39042.71, -42100.25, 0.00, 0.00, 0.00, -61895.78, 0.00, -0.03, -0.03
225, 15888.83, -10342.44, -39027.66, -42094.68, 0.00, 0.00, 0.00, -61834.73, 0.00, -0.03, -0.03
226, 15899.82, -10338.60, -38987.41, -42079.04, 0.00, 0.00, 0.00, -61678.90, 0.00, -0.03, -0.03
227, 15897.54, -10338.17, -38998.12, -42091.93, 0.00, 0.00, 0.00, -61722.02, 0.00, -0.03, -0.03
228, 15885.18, -10341.84, -39037.36, -42112.99, 0.00, 0.00, 0.00, -61884.00, -0.03, -0.03, 0.00
229, 15889.74, -10337.93, -39022.14, -42105.79, 0.00, 0.00, 0.00, -61852.53, -0.03, -0.03, 0.00
230, 15899.53, -10340.50, -38988.19, -42091.02, 0.00, 0.00, 0.00, -61696.76, -0.03, -0.03, 0.00
231, 15891.84, -10346.26, -38990.76, -42092.67, 0.00, 0.00, 0.00, -61700.65, -0.03, -0.03, -0.03
232, 15883.86, -10341.12, -39019.28, -42098.04, 0.00, 0.00, 0.00, -61858.05, 0.00, -0.03, -0.03
233, 15887.64, -10340.61, -39019.89, -42094.12, 0.00, 0.00, 0.00, -61872.44, -0.03, -0.03, -0.03
234, 15890.26, -10348.23, -38994.88, -42085.07, 0.00, 0.00, 0.00, -61722.55, -0.03, -0.03, -0.03
235, 15888.83, -10347.85, -38992.37, -42084.13, 0.00, 0.00, 0.00, -61684.51, -0.03, -0.03, -0.03
236, 15885.63, -10342.55, -39029.21, -42097.52, 0.00, 0.00, 0.00, -61837.37, -0.03, 0.00, 0.00
237, 15884.65, -10339.20, -39042.21, -42101.39, 0.00, 0.00, 0.00, -61897.48, 0.00, -0.03, -0.03
238, 15886.93, -10348.97, -39017.36, -42091.66, 0.00, 0.00, 0.00, -61759.99, 0.00, -0.03, -0.03
239, 15897.30, -10344.63, -38999.34, -42077.79, 0.00, 0.00, 0.00, -61679.01, -0.03, -0.03, -0.03
240, 15883.57, -10347.43, -39032.96, -42097.48, 0.00, 0.00, 0.00, -61818.11, 0.00, 0.00, -0.03
241, 15872.11, -10354.31, -39056.57, -42115.96, 0.00, 0.00, 0.00, -61918.15, -0.03, 0.00, -0.03
242, 15880.67, -10357.31, -39029.68, -42109.32, 0.00, 0.00, 0.00, -61797.18, 0.00, 0.00, -0.03
243, 15891.93, -10351.34, -39001.82, -42096.29, 0.00, 0.00, 0.00, -61680.40, 0.00, -0.03, -0.03
244, 15887.31, -10345.55, -39022.66, -42103.91, 0.00, 0.00, 0.00, -61782.88, -0.03, -0.03, -0.03
245, 15873.47, -10359.09, -39058.82, -42127.43, 0.00, 0.00, 0.00, -61920.63, 0.00, -0.03, -0.03
246, 15876.56, -10363.74, -39036.79, -42120.16, 0.00, 0.00, 0.00, -61832.16, 0.00, -0.03, -0.03
247, 15887.35, -10357.80, -38996.73, -42101.05, 0.00, 0.00, 0.00, -61684.82, 0.00, -0.03, 0.00
248, 15886.10, -10351.38, -39006.95, -42100.56, 0.00, 0.00, 0.00, -61750.20, -0.03, -0.03, -0.03
249, 15880.60, -10347.54, -39036.34, -42110.64, 0.00, 0.00, 0.00, -61898.17, 0.00, -0.03, -0.03
250, 15880.56, -10351.88, -39022.77, -42107.45, 0.00, 0.00, 0.00, -61849.82, -0.03, 0.00, -0.03
251, 15885.38, -10356.95, -38991.59, -42092.94, 0.00, 0.00, 0.00, -61697.74, 0.00, 0.00, 0.00
252, 15886.75, -10354.38, -38996.21, -42089.72, 0.00, 0.00, 0.00, -61725.32, -0.03, -0.03, 0.00
253, 15880.56, -10349.89, -39031.75, -42101.75, 0.00, 0.00, 0.00, -61881.41, -0.03, -0.03, -0.03
254, 15887.82, -10346.53, -39029.52, -42096.49, 0.00, 0.00, 0.00, -61865.58, 0.00, -0.03, -0.03
255, 15892.45, -10351.03, -39003.59, -42085.81, 0.00, 0.00, 0.00, -61712.58, -0.03, -0.03, -0.03
0, 15895.33, -10343.81, -39000.64, -42082.39, 0.00, 0.00, 0.00, -61697.74, -0.03, -0.03, -0.03
1, 15881.61, -10347.94, -39043.49, -42102.68, 0.00, 0.00, 0.00, -61860.77, 0.00, 0.00, -0.03
2, 15877.20, -10356.12, -39056.79, -42109.55, 0.00, 0.00, 0.00, -61899.89, 0.00, -0.03, 0.00
3, 15883.22, -10361.98, -39021.61, -42090.79, 0.00, 0.00, 0.00, -61744.32, 0.00, 0.00, -0.03
4, 15882.88, -10358.60, -39009.36, -42084.45, 0.00, 0.00, 0.00, -61689.72, -0.03, 0.00, -0.03
5, 15881.65, -10346.73, -39035.20, -42093.70, 0.00, 0.00, 0.00, -61833.44, 0.00, 0.00, 0.00
6, 15887.64, -10342.62, -39044.90, -42096.40, 0.00, 0.00, 0.00, -61902.24, -0.03, -0.03, -0.03
7, 15893.88, -10344.19, -39015.33, -42083.57, 0.00, 0.00, 0.00, -61764.71, -0.03, 0.00, 0.00
8, 15889.54, -10351.85, -39001.73, -42089.99, 0.00, 0.00, 0.00, -61681.07, -0.03, -0.03, -0.03
9, 15884.07, -10348.92, -39024.45, -42107.06, 0.00, 0.00, 0.00, -61808.07, -0.03, -0.03, 0.00
10, 15879.37, -10348.52, -39042.89, -42115.80, 0.00, 0.00, 0.00, -61915.54, -0.03, -0.03, -0.03
11, 15878.63, -10360.91, -39024.91, -42110.06, 0.00, 0.00, 0.00, -61807.51, 0.00, 0.00, 0.00
12, 15881.47, -10363.16, -38998.18, -42101.10, 0.00, 0.00, 0.00, -61685.14, -0.03, -0.03, -0.03
13, 15884.31, -10354.76, -39014.39, -42108.00, 0.00, 0.00, 0.00, -61781.09, 0.00, 0.00, -0.03
14, 15881.61, -10347.81, -39043.67, -42120.79, 0.00, 0.00, 0.00, -61919.80, -0.03, -0.03, -0.03
15, 15889.65, -10348.21, -39027.57, -42112.41, 0.00, 0.00, 0.00, -61841.91, -0.03, 0.00, -0.03
16, 15889.97, -10354.36, -38999.99, -42099.20, 0.00, 0.00, 0.00, -61692.38, -0.03, 0.00, 0.00
17, 15881.90, -10354.76, -39018.12, -42103.15, 0.00, 0.00, 0.00, -61752.19, 0.00, -0.03, -0.03
18, 15881.20, -10343.65, -39047.58, -42110.89, 0.00, 0.00, 0.00, -61906.17, -0.03, -0.03, -0.03
19, 15894.30, -10340.27, -39031.09, -42099.55, 0.00, 0.00, 0.00, -61855.97, -0.03, 0.00, -0.03
20, 15893.83, -10353.80, -39002.18, -42095.06, 0.00, 0.00, 0.00, -61695.15, -0.03, -0.03, -0.03
21, 15894.95, -10348.23, -39003.43, -42090.84, 0.00, 0.00, 0.00, -61705.70, -0.03, -0.03, -0.03
22, 15890.17, -10339.72, -39033.30, -42095.24, 0.00, 0.00, 0.00, -61865.85, -0.03, -0.03, -0.03
23, 15885.47, -10350.27, -39042.39, -42104.29, 0.00, 0.00, 0.00, -61879.77, 0.00, 0.00, -0.03
24, 15891.82, -10355.92, -39008.66, -42093.30, 0.00, 0.00, 0.00, -61717.28, -0.03, -0.03, 0.00
25, 15892.60, -10353.24, -38997.07, -42087.98, 0.00, 0.00, 0.00, -61683.59, 0.00, 0.00, -0.03
26, 15882.28, -10347.52, -39032.11, -42099.38, 0.00, 0.00, 0.00, -61846.45, 0.00, -0.03, -0.03
27, 15873.34, -10353.80, -39051.34, -42108.14, 0.00, 0.00, 0.00, -61902.39, -0.03, -0.03, -0.03
28, 15879.51, -10362.65, -39017.63, -42099.38, 0.00, 0.00, 0.00, -61751.59, -0.03, 0.00, -0.03
29, 15887.13, -10359.54, -38994.94, -42090.88, 0.00, 0.00, 0.00, -61676.48, -0.03, 0.00, -0.03
30, 15877.76, -10356.23, -39030.66, -42109.10, 0.00, 0.00, 0.00, -61830.22, -0.03, -0.03, 0.00
31, 15869.47, -10357.71, -39056.41, -42124.90, 0.00, 0.00, 0.00, -61930.47, -0.03, -0.03, -0.03
32, 15871.37, -10359.56, -39022.55, -42109.32, 0.00, 0.00, 0.00, -61794.79, -0.03, 0.00, 0.00
33, 15883.44, -10353.55, -38991.05, -42088.69, 0.00, 0.00, 0.00, -61673.85, -0.03, 0.00, -0.03
34, 15887.69, -10343.07, -39019.77, -42097.32, 0.00, 0.00, 0.00, -61793.47, -0.03, 0.00, -0.03
35, 15885.72, -10339.45, -39049.86, -42109.97, 0.00, 0.00, 0.00, -61916.50, -0.03, -0.03, -0.03
36, 15890.55, -10343.27, -39025.94, -42097.81, 0.00, 0.00, 0.00, -61808.11, -0.03, -0.03, 0.00
37, 15895.38, -10348.25, -38991.30, -42084.51, 0.00, 0.00, 0.00, -61663.97, 0.00, -0.03, -0.03
38, 15886.03, -10349.01, -39007.48, -42094.61, 0.00, 0.00, 0.00, -61748.21, -0.03, -0.03, 0.00
39, 15876.13, -10346.00, -39040.83, -42109.48, 0.00, 0.00, 0.00, -61902.33, -0.03, -0.03, 0.00
40, 15880.82, -10349.17, -39028.11, -42098.93, 0.00, 0.00, 0.00, -61838.07, -0.03, -0.03, -0.03
41, 15886.81, -10354.83, -38993.64, -42080.62, 0.00, 0.00, 0.00, -61675.99, -0.03, 0.00, -0.03
42, 15889.38, -10342.42, -38999.86, -42074.30, 0.00, 0.00, 0.00, -61715.33, 0.00, 0.00, -0.03
43, 15870.72, -10346.78, -39046.73, -42096.92, 0.00, 0.00, 0.00, -61886.14, -0.03, -0.03, -0.03
44, 15870.70, -10352.34, -39041.23, -42095.06, 0.00, 0.00, 0.00, -61859.55, 0.00, 0.00, -0.03
45, 15875.84, -10360.01, -39004.46, -42080.73, 0.00, 0.00, 0.00, -61691.91, 0.00, 0.00, -0.03
46, 15881.16, -10351.58, -38998.09, -42075.10, 0.00, 0.00, 0.00, -61690.63, -0.03, -0.03, 0.00
47, 15870.68, -10350.94, -39035.67, -42095.98, 0.00, 0.00, 0.00, -61862.72, 0.00, -0.03, 0.00
48, 15869.72, -10358.09, -39038.21, -42102.01, 0.00, 0.00, 0.00, -61885.14, -0.03, -0.03, -0.03
49, 15885.16, -10355.16, -38983.83, -42077.67, 0.00, 0.00, 0.00, -61704.63, -0.03, -0.03, -0.03
50, 15885.67, -10355.21, -38969.62, -42074.61, 0.00, 0.00, 0.00, -61658.92, 0.00, -0.03, -0.03
51, 15874.97, -10352.77, -39007.66, -42090.97, 0.00, 0.00, 0.00, -61822.89, -0.03, -0.03, -0.03
52, 15869.38, -10354.27, -39027.39, -42094.30, 0.00, 0.00, 0.00, -61889.56, 0.00, -0.03, -0.03
53, 15879.26, -10354.18, -38998.70, -42079.86, 0.00, 0.00, 0.00, -61741.59, 0.00, -0.03, -0.03
54, 15879.68, -10355.76, -38988.75, -42076.98, 0.00, 0.00, 0.00, -61664.08, -0.03, -0.03, 0.00
55, 15870.27, -10353.26, -39022.66, -42087.77, 0.00, 0.00, 0.00, -61798.97, -0.03, -0.03, -0.03
56, 15870.14, -10348.99, -39043.87, -42095.73, 0.00, 0.00, 0.00, -61893.70, -0.03, -0.03, -0.03
57, 15881.23, -10353.66, -39013.11, -42086.66, 0.00, 0.00, 0.00, -61764.62, -0.03, -0.03, 0.00
58, 15884.94, -10353.80, -38990.29, -42081.02, 0.00, 0.00, 0.00, -61655.86, 0.00, 0.00, -0.03
59, 15874.05, -10356.50, -39022.12, -42096.92, 0.00, 0.00, 0.00, -61775.66, -0.03, 0.00, -0.03
60, 15864.91, -10358.16, -39051.74, -42105.19, 0.00, 0.00, 0.00, -61905.37, -0.03, -0.03, -0.03
61, 15877.16, -10353.60, -39027.35, -42089.03, 0.00, 0.00, 0.00, -61806.97, 0.00, -0.03, -0.03
62, 15893.01, -10350.67, -38997.18, -42076.42, 0.00, 0.00, 0.00, -61661.40, 0.00, -0.03, -0.03
63, 15884.00, -10348.99, -39016.60, -42088.38, 0.00, 0.00, 0.00, -61742.63, -0.03, -0.03, 0.00
64, 15880.18, -10341.75, -39038.32, -42096.16, 0.00, 0.00, 0.00, -61890.48, -0.03, -0.03, -0.03
65, 15879.46, -10348.34, -39016.96, -42089.16, 0.00, 0.00, 0.00, -61829.15, 0.00, -0.03, 0.00
66, 15874.81, -10362.87, -38979.12, -42077.74, 0.00, 0.00, 0.00, -61668.28, -0.03, -0.03, 0.00
67, 15877.78, -10355.27, -38986.07, -42078.32, 0.00, 0.00, 0.00, -61706.05, 0.00, -0.03, 0.00
68, 15870.18, -10352.70, -39021.96, -42087.98, 0.00, 0.00, 0.00, -61869.22, -0.03, -0.03, -0.03
69, 15871.39, -10357.06, -39014.88, -42080.15, 0.00, 0.00, 0.00, -61847.21, 0.00, 0.00, -0.03
70, 15877.00, -10363.18, -38985.00, -42067.86, 0.00, 0.00, 0.00, -61680.51, -0.03, -0.03, 0.00
71, 15879.08, -10356.81, -38995.39, -42073.56, 0.00, 0.00, 0.00, -61678.43, 0.00, -0.03, -0.03
72, 15876.13, -10346.04, -39034.44, -42090.41, 0.00, 0.00, 0.00, -61846.76, -0.03, -0.03, -0.03
73, 15875.39, -10344.14, -39043.00, -42095.60, 0.00, 0.00, 0.00, -61879.02, 0.00, 0.00, -0.03
74, 15881.56, -10351.34, -39009.80, -42083.33, 0.00, 0.00, 0.00, -61719.22, 0.00, -0.03, 0.00
75, 15887.35, -10348.21, -38996.30, -42078.19, 0.00, 0.00, 0.00, -61665.46, 0.00, -0.03, 0.00
76, 15877.23, -10346.33, -39030.55, -42092.29, 0.00, 0.00, 0.00, -61822.78, -0.03, 0.00, -0.03
77, 15876.06, -10346.06, -39043.45, -42094.84, 0.00, 0.00, 0.00, -61888.29, -0.03, -0.03, -0.03
78, 15887.96, -10348.66, -39009.98, -42077.74, 0.00, 0.00, 0.00, -61741.84, 0.00, -0.03, -0.03
79, 15886.35, -10356.81, -38995.95, -42077.70, 0.00, 0.00, 0.00, -61660.46, 0.00, -0.03, -0.03
80, 15881.85, -10346.85, -39018.61, -42088.76, 0.00, 0.00, 0.00, -61790.48, -0.03, -0.03, -0.03
81, 15877.36, -10348.12, -39038.48, -42099.33, 0.00, 0.00, 0.00, -61896.65, -0.03, -0.03, -0.03
82, 15864.02, -10373.98, -39028.29, -42111.49, 0.00, 0.00, 0.00, -61798.86, -0.03, -0.03, -0.03
83, 15874.34, -10368.59, -38991.90, -42093.56, 0.00, 0.00, 0.00, -61670.16, 0.00, -0.03, -0.03
84, 15870.70, -10364.88, -39012.98, -42100.63, 0.00, 0.00, 0.00, -61775.04, 0.00, -0.03, 0.00
85, 15865.38, -10365.38, -39046.51, -42113.75, 0.00, 0.00, 0.00, -61915.02, -0.03, 0.00, 0.00
86, 15867.37, -10366.69, -39031.91, -42109.72, 0.00, 0.00, 0.00, -61832.07, -0.03, -0.03, -0.03
87, 15873.38, -10364.84, -38998.29, -42097.03, 0.00, 0.00, 0.00, -61682.41, -0.03, -0.03, 0.00
88, 15876.85, -10355.41, -39009.09, -42099.75, 0.00, 0.00, 0.00, -61742.60, 0.00, -0.03, 0.00
89, 15873.45, -10350.47, -39040.18, -42110.04, 0.00, 0.00, 0.00, -61894.37, -0.03, -0.03, 0.00
90, 15873.38, -10357.02, -39035.31, -42109.93, 0.00, 0.00, 0.00, -61857.02, -0.03, 0.00, 0.00
91, 15880.29, -10359.90, -39005.22, -42096.67, 0.00, 0.00, 0.00, -61697.05, 0.00, 0.00, 0.00
92, 15879.33, -10356.81, -39016.51, -42100.16, 0.00, 0.00, 0.00, -61721.81, -0.03, 0.00, -0.03
93, 15875.53, -10349.82, -39046.13, -42106.44, 0.00, 0.00, 0.00, -61880.71, 0.00, 0.00, -0.03
94, 15869.54, -10359.36, -39048.50, -42107.09, 0.00, 0.00, 0.00, -61879.42, -0.03, 0.00, -0.03
95, 15881.83, -10362.04, -39015.53, -42091.66, 0.00, 0.00, 0.00, -61715.06, 0.00, 0.00, 0.00
96, 15884.31, -10358.45, -39013.56, -42091.15, 0.00, 0.00, 0.00, -61697.34, 0.00, -0.03, 0.00
97, 15871.01, -10358.80, -39050.33, -42110.84, 0.00, 0.00, 0.00, -61868.20, 0.00, -0.03, 0.00
98, 15870.70, -10356.93, -39053.73, -42107.31, 0.00, 0.00, 0.00, -61907.33, 0.00, 0.00, -0.03
99, 15882.39, -10356.75, -39012.44, -42085.50, 0.00, 0.00, 0.00, -61741.86, -0.03, -0.03, 0.00
100, 15884.76, -10350.13, -38992.97, -42075.53, 0.00, 0.00, 0.00, -61669.55, 0.00, 0.00, 0.00
101, 15869.94, -10349.39, -39029.23, -42093.23, 0.00, 0.00, 0.00, -61824.90, -0.03, -0.03, -0.03
102, 15868.26, -10354.76, -39050.91, -42106.59, 0.00, 0.00, 0.00, -61915.34, -0.03, 0.00, -0.03
103, 15884.42, -10352.75, -39012.22, -42085.36, 0.00, 0.00, 0.00, -61766.79, 0.00, 0.00, 0.00
104, 15891.58, -10350.40, -38987.72, -42069.49, 0.00, 0.00, 0.00, -61661.60, -0.03, 0.00, 0.00
105, 15880.00, -10351.56, -39017.07, -42080.51, 0.00, 0.00, 0.00, -61789.36, -0.03, -0.03, 0.00
106, 15871.77, -10352.30, -39041.79, -42090.90, 0.00, 0.00, 0.00, -61904.61, -0.03, -0.03, 0.00
107, 15873.92, -10356.90, -39018.30, -42087.91, 0.00, 0.00, 0.00, -61793.79, -0.03, 0.00, 0.00
108, 15878.05, -10360.84, -38985.17, -42080.20, 0.00, 0.00, 0.00, -61658.78, -0.03, 0.00, -0.03
109, 15874.41, -10356.08, -39009.45, -42092.20, 0.00, 0.00, 0.00, -61758.67, -0.03, -0.03, -0.03
110, 15880.62, -10339.74, -39034.19, -42095.08, 0.00, 0.00, 0.00, -61894.08, 0.00, -0.03, -0.03
111, 15881.43, -10350.35, -39025.12, -42093.05, 0.00, 0.00, 0.00, -61824.10, -0.03, -0.03, -0.03
112, 15882.41, -10359.34, -38999.52, -42084.76, 0.00, 0.00, 0.00, -61675.05, -0.03, -0.03, 0.00
113, 15875.95, -10359.07, -39015.80, -42091.82, 0.00, 0.00, 0.00, -61734.36, 0.00, 0.00, -0.03
114, 15876.33, -10352.32, -39047.98, -42100.11, 0.00, 0.00, 0.00, -61890.12, -0.03, 0.00, -0.03
115, 15870.01, -10360.44, -39045.72, -42101.27, 0.00, 0.00, 0.00, -61860.60, 0.00, -0.03, -0.03
116, 15871.95, -10368.66, -39015.13, -42091.11, 0.00, 0.00, 0.00, -61703.89, 0.00, 0.00, 0.00
117, 15871.33, -10366.20, -39015.21, -42090.88, 0.00, 0.00, 0.00, -61716.94, 0.00, -0.03, 0.00
118, 15866.81, -10360.95, -39043.40, -42101.52, 0.00, 0.00, 0.00, -61880.76, -0.03, -0.03, -0.03
119, 15867.53, -10363.90, -39042.48, -42101.27, 0.00, 0.00, 0.00, -61887.55, -0.03, -0.03, -0.03
120, 15877.09, -10364.77, -39001.54, -42082.81, 0.00, 0.00, 0.00, -61715.00, -0.03, 0.00, -0.03
121, 15870.99, -10369.58, -38996.24, -42086.99, 0.00, 0.00, 0.00, -61681.89, -0.03, -0.03, 0.00
122, 15859.52, -10369.04, -39033.45, -42101.81, 0.00, 0.00, 0.00, -61845.80, -0.03, 0.00, -0.03
123, 15867.93, -10357.91, -39037.57, -42098.73, 0.00, 0.00, 0.00, -61892.38, 0.00, 0.00, -0.03
124, 15876.11, -10358.87, -39001.49, -42082.07, 0.00, 0.00, 0.00, -61736.63, 0.00, -0.03, -0.03
125, 15881.88, -10353.75, -38983.16, -42075.57, 0.00, 0.00, 0.00, -61661.40, -0.03, 0.00, -0.03
126, 15871.44, -10349.89, -39017.52, -42090.19, 0.00, 0.00, 0.00, -61809.57, -0.03, -0.03, -0.03
127, 15867.41, -10349.62, -39034.17, -42095.66, 0.00, 0.00, 0.00, -61900.18, -0.03, -0.03, -0.03
128, 15872.24, -10357.80, -39011.19, -42091.62, 0.00, 0.00, 0.00, -61775.10, 0.00, -0.03, -0.03
129, 15875.79, -10357.53, -38992.13, -42084.13, 0.00, 0.00, 0.00, -61665.80, -0.03, -0.03, -0.03
130, 15875.37, -10349.17, -39015.68, -42086.37, 0.00, 0.00, 0.00, -61778.25, -0.03, -0.03, 0.00
131, 15865.85, -10352.37, -39048.32, -42098.26, 0.00, 0.00, 0.00, -61906.44, 0.00, -0.03, -0.03
132, 15874.28, -10352.59, -39022.66, -42084.96, 0.00, 0.00, 0.00, -61800.27, 0.00, -0.03, -0.03
133, 15872.29, -10361.84, -38999.95, -42081.67, 0.00, 0.00, 0.00, -61668.73, -0.03, -0.03, -0.03
134, 15867.32, -10361.62, -39021.25, -42093.90, 0.00, 0.00, 0.00, -61756.32, -0.03, -0.03, -0.03
135, 15864.62, -10356.68, -39051.38, -42105.30, 0.00, 0.00, 0.00, -61906.35, -0.03, 0.00, -0.03
136, 15867.59, -10355.14, -39029.21, -42091.78, 0.00, 0.00, 0.00, -61837.84, 0.00, -0.03, -0.03
137, 15879.15, -10352.39, -38990.25, -42070.30, 0.00, 0.00, 0.00, -61672.95, -0.03, 0.00, -0.03
138, 15877.18, -10351.70, -39000.46, -42069.25, 0.00, 0.00, 0.00, -61716.25, -0.03, -0.03, -0.03
139, 15863.50, -10354.36, -39041.05, -42084.94, 0.00, 0.00, 0.00, -61887.46, -0.03, 0.00, -0.03
140, 15868.73, -10349.68, -39030.08, -42071.03, 0.00, 0.00, 0.00, -61857.18, -0.03, -0.03, -0.03
141, 15870.03, -10359.83, -38996.39, -42057.91, 0.00, 0.00, 0.00, -61687.28, -0.03, -0.03, 0.00
142, 15873.14, -10356.50, -38992.93, -42060.55, 0.00, 0.00, 0.00, -61683.10, -0.03, 0.00, -0.03
143, 15860.19, -10357.11, -39026.39, -42077.67, 0.00, 0.00, 0.00, -61849.64, -0.03, 0.00, 0.00
144, 15847.92, -10374.50, -39040.07, -42098.17, 0.00, 0.00, 0.00, -61883.17, -0.03, 0.00, 0.00
145, 15874.68, -10360.93, -38989.40, -42075.50, 0.00, 0.00, 0.00, -61707.89, -0.03, 0.00, -0.03
146, 15867.68, -10368.93, -38992.77, -42088.04, 0.00, 0.00, 0.00, -61681.96, -0.03, -0.03, -0.03
147, 15857.96, -10366.38, -39029.09, -42106.91, 0.00, 0.00, 0.00, -61845.29, 0.00, -0.03, -0.03
148, 15856.68, -10362.40, -39040.09, -42108.54, 0.00, 0.00, 0.00, -61905.99, -0.03, 0.00, -0.03
149, 15863.77, -10364.79, -39010.30, -42093.50, 0.00, 0.00, 0.00, -61755.57, -0.03, -0.03, -0.03
150, 15873.34, -10360.12, -38993.54, -42078.14, 0.00, 0.00, 0.00, -61667.30, -0.03, -0.03, -0.03
151, 15869.69, -10354.24, -39026.91, -42087.55, 0.00, 0.00, 0.00, -61805.61, -0.03, -0.03, -0.03
152, 15865.31, -10353.82, -39049.26, -42097.97, 0.00, 0.00, 0.00, -61907.63, 0.00, 0.00, -0.03
153, 15869.13, -10363.18, -39027.08, -42091.38, 0.00, 0.00, 0.00, -61785.25, -0.03, -0.03, -0.03
154, 15874.63, -10364.01, -39000.24, -42078.14, 0.00, 0.00, 0.00, -61663.57, -0.03, -0.03, -0.03
155, 15868.44, -10358.22, -39025.94, -42085.11, 0.00, 0.00, 0.00, -61778.68, 0.00, -0.03, -0.03
156, 15860.71, -10356.12, -39056.83, -42097.74, 0.00, 0.00, 0.00, -61913.17, 0.00, -0.03, -0.03
157, 15855.08, -10370.25, -39041.54, -42097.30, 0.00, 0.00, 0.00, -61827.76, 0.00, -0.03, 0.00
158, 15869.36, -10368.46, -39000.84, -42074.63, 0.00, 0.00, 0.00, -61673.85, -0.03, 0.00, 0.00
159, 15874.68, -10358.40, -39005.18, -42069.20, 0.00, 0.00, 0.00, -61735.56, 0.00, -0.03, -0.03
160, 15871.66, -10351.79, -39039.09, -42085.11, 0.00, 0.00, 0.00, -61894.06, -0.03, 0.00, 0.00
161, 15871.10, -10357.60, -39030.79, -42088.51, 0.00, 0.00, 0.00, -61849.64, -0.03, -0.03, -0.03
162, 15872.51, -10367.92, -38992.26, -42078.12, 0.00, 0.00, 0.00, -61686.81, 0.00, -0.03, 0.00
163, 15872.08, -10364.41, -38991.68, -42076.69, 0.00, 0.00, 0.00, -61709.92, -0.03, -0.03, -0.03
164, 15867.86, -10356.95, -39022.30, -42084.29, 0.00, 0.00, 0.00, -61871.95, -0.03, -0.03, -0.03
165, 15872.73, -10355.36, -39016.78, -42080.00, 0.00, 0.00, 0.00, -61857.13, 0.00, -0.03, -0.03
166, 15889.12, -10352.28, -38976.66, -42060.21, 0.00, 0.00, 0.00, -61686.66, 0.00, -0.03, 0.00
167, 15883.73, -10355.18, -38980.19, -42065.58, 0.00, 0.00, 0.00, -61678.88, -0.03, -0.03, 0.00
168, 15873.07, -10354.47, -39022.43, -42086.03, 0.00, 0.00, 0.00, -61847.41, 0.00, -0.03, -0.03
169, 15876.47, -10348.99, -39026.86, -42086.55, 0.00, 0.00, 0.00, -61876.42, -0.03, -0.03, -0.03
170, 15878.63, -10360.35, -38998.94, -42081.72, 0.00, 0.00, 0.00, -61721.75, 0.00, -0.03, 0.00
171, 15869.94, -10372.48, -39003.97, -42092.51, 0.00, 0.00, 0.00, -61682.52, -0.03, 0.00, -0.03
172, 15868.62, -10363.70, -39036.80, -42101.39, 0.00, 0.00, 0.00, -61835.45, -0.03, 0.00, 0.00
173, 15867.70, -10358.85, -39048.59, -42096.09, 0.00, 0.00, 0.00, -61908.12, -0.03, -0.03, -0.03
174, 15877.36, -10357.57, -39011.48, -42076.26, 0.00, 0.00, 0.00, -61755.95, -0.03, -0.03, -0.03
175, 15877.20, -10360.64, -38991.88, -42070.92, 0.00, 0.00, 0.00, -61660.88, -0.03, -0.03, -0.03
176, 15866.45, -10361.60, -39023.04, -42086.84, 0.00, 0.00, 0.00, -61793.36, -0.03, -0.03, 0.00
177, 15867.17, -10355.99, -39040.65, -42087.26, 0.00, 0.00, 0.00, -61899.71, -0.03, 0.00, -0.03
178, 15884.98, -10348.83, -39000.80, -42059.77, 0.00, 0.00, 0.00, -61769.58, 0.00, -0.03, 0.00
179, 15877.81, -10359.36, -38980.82, -42057.58, 0.00, 0.00, 0.00, -61645.13, -0.03, -0.03, 0.00
180, 15857.85, -10367.50, -39009.31, -42074.79, 0.00, 0.00, 0.00, -61756.35, -0.03, -0.03, -0.03
181, 15855.28, -10362.29, -39037.12, -42083.89, 0.00, 0.00, 0.00, -61896.58, -0.03, -0.03, 0.00
182, 15866.83, -10361.62, -39014.05, -42076.53, 0.00, 0.00, 0.00, -61814.57, 0.00, -0.03, -0.03
183, 15869.02, -10372.95, -38984.44, -42073.52, 0.00, 0.00, 0.00, -61674.68, 0.00, -0.03, -0.03
184, 15868.15, -10370.40, -38995.01, -42083.35, 0.00, 0.00, 0.00, -61737.95, -0.03, -0.03, -0.03
185, 15861.96, -10367.99, -39026.50, -42096.36, 0.00, 0.00, 0.00, -61894.75, 0.00, 0.00, -0.03
186, 15865.36, -10369.91, -39013.43, -42087.17, 0.00, 0.00, 0.00, -61846.36, 0.00, 0.00, 0.00
187, 15883.69, -10359.25, -38968.12, -42061.64, 0.00, 0.00, 0.00, -61669.33, -0.03, -0.03, -0.03
188, 15865.96, -10368.68, -38986.85, -42073.85, 0.00, 0.00, 0.00, -61693.47, 0.00, -0.03, 0.00
189, 15856.44, -10368.39, -39033.01, -42095.11, 0.00, 0.00, 0.00, -61865.65, -0.03, -0.03, -0.03
190, 15868.06, -10360.61, -39030.37, -42089.18, 0.00, 0.00, 0.00, -61863.19, 0.00, -0.03, -0.03
191, 15878.37, -10360.59, -38993.82, -42069.71, 0.00, 0.00, 0.00, -61698.95, 0.00, -0.03, 0.00
192, 15876.58, -10362.13, -38994.38, -42074.90, 0.00, 0.00, 0.00, -61681.34, 0.00, 0.00, 0.00
193, 15868.91, -10357.95, -39038.71, -42094.93, 0.00, 0.00, 0.00, -61857.87, -0.03, -0.03, 0.00
194, 15873.52, -10353.60, -39048.79, -42094.28, 0.00, 0.00, 0.00, -61904.38, -0.03, 0.00, 0.00
195, 15876.18, -10361.46, -39019.33, -42084.91, 0.00, 0.00, 0.00, -61751.03, 0.00, -0.03, 0.00
196, 15883.06, -10361.80, -39008.38, -42083.44, 0.00, 0.00, 0.00, -61683.39, 0.00, -0.03, 0.00
197, 15877.29, -10356.64, -39039.27, -42098.14, 0.00, 0.00, 0.00, -61831.11, -0.03, -0.03, -0.03
198, 15868.02, -10359.47, -39058.46, -42114.11, 0.00, 0.00, 0.00, -61922.02, -0.03, -0.03, 0.00
199, 15880.06, -10357.66, -39018.93, -42102.71, 0.00, 0.00, 0.00, -61781.05, -0.03, -0.03, -0.03
200, 15884.94, -10360.97, -38991.68, -42098.79, 0.00, 0.00, 0.00, -61677.98, 0.00, -0.03, 0.00
201, 15871.62, -10367.52, -39022.81, -42117.75, 0.00, 0.00, 0.00, -61807.91, -0.03, -0.03, 0.00
202, 15869.18, -10365.51, -39046.60, -42121.84, 0.00, 0.00, 0.00, -61923.54, 0.00, -0.03, 0.00
203, 15869.25, -10373.24, -39031.55, -42115.74, 0.00, 0.00, 0.00, -61821.41, 0.00, -0.03, -0.03
204, 15878.54, -10369.29, -39001.69, -42097.25, 0.00, 0.00, 0.00, -61686.14, 0.00, 0.00, 0.00
205, 15886.68, -10352.21, -39013.38, -42087.75, 0.00, 0.00, 0.00, -61769.91, -0.03, -0.03, -0.03
206, 15862.36, -10366.45, -39055.85, -42108.23, 0.00, 0.00, 0.00, -61922.45, 0.00, 0.00, 0.00
207, 15874.14, -10360.19, -39029.21, -42086.37, 0.00, 0.00, 0.00, -61836.64, -0.03, 0.00, -0.03
208, 15873.49, -10368.66, -38999.79, -42077.20, 0.00, 0.00, 0.00, -61681.56, -0.03, 0.00, -0.03
209, 15870.41, -10365.58, -39010.86, -42075.35, 0.00, 0.00, 0.00, -61730.71, 0.00, 0.00, 0.00
210, 15864.66, -10360.37, -39042.82, -42078.03, 0.00, 0.00, 0.00, -61887.33, -0.03, -0.03, -0.03
211, 15863.52, -10369.31, -39035.02, -42070.59, 0.00, 0.00, 0.00, -61853.80, -0.03, 0.00, 0.00
212, 15870.05, -10379.01, -39000.44, -42054.54, 0.00, 0.00, 0.00, -61686.10, -0.03, -0.03, 0.00
213, 15875.68, -10368.75, -39000.53, -42054.94, 0.00, 0.00, 0.00, -61692.31, 0.00, -0.03, 0.00
214, 15879.24, -10353.46, -39032.05, -42067.23, 0.00, 0.00, 0.00, -61854.94, -0.03, -0.03, -0.03
215, 15876.94, -10357.33, -39042.44, -42080.84, 0.00, 0.00, 0.00, -61873.94, -0.03, -0.03, -0.03
216, 15885.81, -10359.72, -39007.13, -42074.95, 0.00, 0.00, 0.00, -61711.40, 0.00, 0.00, 0.00
217, 15892.00, -10352.57, -38992.59, -42069.76, 0.00, 0.00, 0.00, -61670.29, 0.00, -0.03, -0.03
218, 15881.52, -10351.07, -39031.51, -42089.59, 0.00, 0.00, 0.00, -61836.19, -0.03, -0.03, -0.03
219, 15879.37, -10354.36, -39047.36, -42100.09, 0.00, 0.00, 0.00, -61895.04, -0.03, -0.03, -0.03
220, 15886.52, -10359.03, -39010.45, -42087.37, 0.00, 0.00, 0.00, -61739.29, -0.03, 0.00, -0.03
221, 15886.05, -10360.97, -38993.38, -42083.06, 0.00, 0.00, 0.00, -61663.79, -0.03, -0.03, -0.03
222, 15875.64, -10364.88, -39033.81, -42106.50, 0.00, 0.00, 0.00, -61819.49, -0.03, 0.00, -0.03
223, 15874.16, -10361.64, -39054.02, -42117.55, 0.00, 0.00, 0.00, -61917.62, -0.03, -0.03, -0.03
224, 15881.76, -10363.56, -39020.94, -42102.82, 0.00, 0.00, 0.00, -61780.22, 0.00, -0.03, -0.03
225, 15883.51, -10365.82, -38996.33, -42090.12, 0.00, 0.00, 0.00, -61665.15, 0.00, -0.03, 0.00
226, 15878.03, -10361.31, -39025.74, -42099.33, 0.00, 0.00, 0.00, -61785.72, 0.00, 0.00, -0.03
227, 15866.72, -10366.94, -39059.80, -42115.36, 0.00, 0.00, 0.00, -61920.57, -0.03, -0.03, -0.03
228, 15874.14, -10373.29, -39034.46, -42103.60, 0.00, 0.00, 0.00, -61817.68, -0.03, -0.03, -0.03
229, 15881.79, -10373.67, -38994.05, -42085.34, 0.00, 0.00, 0.00, -61667.70, -0.03, -0.03, 0.00
230, 15872.67, -10372.93, -39008.98, -42089.72, 0.00, 0.00, 0.00, -61748.01, -0.03, 0.00, -0.03
231, 15866.18, -10367.79, -39040.85, -42097.86, 0.00, 0.00, 0.00, -61897.57, -0.03, -0.03, -0.03
232, 15872.17, -10366.96, -39028.20, -42091.15, 0.00, 0.00, 0.00, -61838.16, -0.03, -0.03, 0.00
233, 15877.83, -10367.74, -38992.24, -42075.53, 0.00, 0.00, 0.00, -61675.21, -0.03, 0.00, -0.03
234, 15873.94, -10364.86, -39002.43, -42077.20, 0.00, 0.00, 0.00, -61717.95, 0.00, -0.03, -0.03
235, 15864.51, -10363.77, -39040.45, -42088.09, 0.00, 0.00, 0.00, -61889.14, -0.03, -0.03, -0.03
236, 15866.23, -10365.71, -39034.84, -42082.19, 0.00, 0.00, 0.00, -61872.20, -0.03, -0.03, 0.00
237, 15877.43, -10368.53, -39000.75, -42068.42, 0.00, 0.00, 0.00, -61705.70, -0.03, -0.03, 0.00
238, 15877.43, -10368.15, -39009.22, -42074.92, 0.00, 0.00, 0.00, -61712.80, -0.03, 0.00, -0.03
239, 15871.17, -10362.74, -39047.98, -42093.45, 0.00, 0.00, 0.00, -61886.30, 0.00, -0.03, 0.00
240, 15874.68, -10359.68, -39045.43, -42091.91, 0.00, 0.00, 0.00, -61902.50, -0.03, 0.00, 0.00
241, 15879.75, -10367.99, -39006.07, -42078.10, 0.00, 0.00, 0.00, -61729.26, 0.00, 0.00, -0.03
242, 15879.08, -10369.73, -38996.62, -42079.91, 0.00, 0.00, 0.00, -61681.16, -0.03, -0.03, -0.03
243, 15874.25, -10359.32, -39027.73, -42089.14, 0.00, 0.00, 0.00, -61836.34, 0.00, -0.03, -0.03
244, 15871.19, -10360.19, -39043.94, -42092.71, 0.00, 0.00, 0.00, -61903.64, 0.00, -0.03, 0.00
245, 15874.57, -10365.46, -39016.40, -42080.31, 0.00, 0.00, 0.00, -61758.80, -0.03, -0.03, 0.00
246, 15875.10, -10369.24, -39002.23, -42076.91, 0.00, 0.00, 0.00, -61675.93, 0.00, -0.03, -0.03
247, 15866.81, -10366.81, -39030.19, -42086.05, 0.00, 0.00, 0.00, -61811.31, -0.03, -0.03, -0.03
248, 15864.17, -10367.83, -39050.39, -42090.55, 0.00, 0.00, 0.00, -61909.75, -0.03, -0.03, -0.03
249, 15873.69, -10366.83, -39019.59, -42076.18, 0.00, 0.00, 0.00, -61780.49, 0.00, -0.03, 0.00
250, 15873.52, -10368.66, -38995.97, -42067.25, 0.00, 0.00, 0.00, -61663.32, -0.03, -0.03, -0.03
251, 15864.55, -10371.48, -39025.12, -42080.80, 0.00, 0.00, 0.00, -61777.58, 0.00, -0.03, 0.00
252, 15861.56, -10372.93, -39055.70, -42093.72, 0.00, 0.00, 0.00, -61913.57, -0.03, 0.00, -0.03
253, 15860.73, -10380.62, -39041.30, -42093.21, 0.00, 0.00, 0.00, -61831.70, -0.03, 0.00, -0.03
254, 15868.29, -10381.85, -39009.89, -42085.02, 0.00, 0.00, 0.00, -61691.84, 0.00, -0.03, -0.03
255, 15862.23, -10383.41, -39026.46, -42096.18, 0.00, 0.00, 0.00, -61766.74, -0.03, -0.03, -0.03
0, 15861.58, -10378.83, -39058.02, -42108.38, 0.00, 0.00, 0.00, -61919.02, -0.03, 0.00, -0.03
1, 15868.64, -10375.17, -39036.89, -42093.86, 0.00, 0.00, 0.00, -61855.39, -0.03, 0.00, -0.03
2, 15878.90, -10373.89, -38993.13, -42073.63, 0.00, 0.00, 0.00, -61681.89, 0.00, -0.03, 0.00
3, 15870.30, -10376.48, -39006.65, -42080.58, 0.00, 0.00, 0.00, -61715.11, -0.03, 0.00, 0.00
4, 15858.47, -10377.69, -39049.82, -42097.12, 0.00, 0.00, 0.00, -61887.55, -0.03, -0.03, -0.03
5, 15851.70, -10386.07, -39057.55, -42104.63, 0.00, 0.00, 0.00, -61890.75, -0.03, -0.03, 0.00
6, 15872.00, -10375.03, -39004.20, -42076.38, 0.00, 0.00, 0.00, -61707.40, 0.00, -0.03, -0.03
7, 15877.16, -10372.01, -38992.82, -42069.94, 0.00, 0.00, 0.00, -61685.98, 0.00, -0.03, 0.00
8, 15860.69, -10377.83, -39036.18, -42089.68, 0.00, 0.00, 0.00, -61862.05, -0.03, -0.03, -0.03
9, 15859.41, -10376.15, -39051.49, -42094.01, 0.00, 0.00, 0.00, -61906.26, -0.03, 0.00, 0.00
10, 15874.16, -10372.53, -39016.55, -42076.80, 0.00, 0.00, 0.00, -61745.53, -0.03, -0.03, -0.03
11, 15876.20, -10372.08, -39007.66, -42074.74, 0.00, 0.00, 0.00, -61686.83, -0.03, 0.00, -0.03
12, 15876.00, -10361.26, -39038.24, -42082.75, 0.00, 0.00, 0.00, -61836.08, -0.03, 0.00, 0.00
13, 15866.30, -10368.68, -39062.51, -42096.36, 0.00, 0.00, 0.00, -61919.47, -0.03, -0.03, -0.03
14, 15873.90, -10373.38, -39029.36, -42086.34, 0.00, 0.00, 0.00, -61778.68, -0.03, -0.03, -0.03
15, 15886.77, -10367.50, -38995.90, -42072.71, 0.00, 0.00, 0.00, -61669.96, 0.00, -0.03, 0.00
16, 15878.88, -10363.54, -39017.92, -42080.89, 0.00, 0.00, 0.00, -61795.73, 0.00, 0.00, 0.00
17, 15867.41, -10369.80, -39045.77, -42097.77, 0.00, 0.00, 0.00, -61915.13, -0.03, 0.00, 0.00
18, 15870.99, -10375.72, -39022.64, -42091.73, 0.00, 0.00, 0.00, -61803.51, 0.00, -0.03, -0.03
19, 15867.28, -10383.75, -39001.38, -42082.03, 0.00, 0.00, 0.00, -61678.68, -0.03, -0.03, -0.03
20, 15872.33, -10369.06, -39010.12, -42070.30, 0.00, 0.00, 0.00, -61766.34, 0.00, -0.03, -0.03
21, 15859.39, -10372.97, -39052.16, -42088.91, 0.00, 0.00, 0.00, -61921.77, 0.00, -0.03, -0.03
22, 15863.52, -10377.71, -39037.81, -42087.82, 0.00, 0.00, 0.00, -61843.39, -0.03, -0.03, -0.03
23, 15878.37, -10373.94, -38995.34, -42068.60, 0.00, 0.00, 0.00, -61683.13, -0.03, -0.03, -0.03
24, 15870.65, -10375.50, -39007.48, -42076.09, 0.00, 0.00, 0.00, -61742.73, -0.03, 0.00, -0.03
25, 15863.01, -10372.64, -39039.58, -42088.94, 0.00, 0.00, 0.00, -61904.76, 0.00, -0.03, -0.03
26, 15873.74, -10366.25, -39019.98, -42077.98, 0.00, 0.00, 0.00, -61856.46, -0.03, -0.03, -0.03
27, 15873.09, -10380.04, -38992.35, -42070.27, 0.00, 0.00, 0.00, -61696.98, -0.03, 0.00, -0.03
28, 15872.49, -10372.86, -38996.57, -42064.06, 0.00, 0.00, 0.00, -61708.74, -0.03, -0.03, 0.00
29, 15875.10, -10357.98, -39024.33, -42068.35, 0.00, 0.00, 0.00, -61866.79, -0.03, -0.03, -0.03
30, 15884.13, -10349.53, -39020.33, -42060.33, 0.00, 0.00, 0.00, -61867.37, -0.03, -0.03, -0.03
31, 15884.47, -10358.89, -38988.23, -42047.34, 0.00, 0.00, 0.00, -61702.37, -0.03, -0.03, -0.03
32, 15884.11, -10357.91, -38986.22, -42047.41, 0.00, 0.00, 0.00, -61678.45, -0.03, -0.03, -0.03
33, 15879.55, -10353.73, -39031.82, -42069.82, 0.00, 0.00, 0.00, -61854.70, 0.00, -0.03, -0.03
34, 15866.32, -10371.01, -39058.24, -42091.82, 0.00, 0.00, 0.00, -61918.78, -0.03, 0.00, 0.00
35, 15873.47, -10376.08, -39019.04, -42080.33, 0.00, 0.00, 0.00, -61758.34, -0.03, 0.00, -0.03
36, 15878.92, -10372.55, -39001.38, -42071.14, 0.00, 0.00, 0.00, -61686.12, -0.03, -0.03, -0.03
37, 15885.18, -10356.41, -39031.20, -42077.20, 0.00, 0.00, 0.00, -61834.89, 0.00, -0.03, 0.00
38, 15868.80, -10365.17, -39066.42, -42097.81, 0.00, 0.00, 0.00, -61940.68, 0.00, -0.03, 0.00
39, 15869.31, -10371.75, -39040.02, -42087.82, 0.00, 0.00, 0.00, -61810.66, -0.03, 0.00, 0.00
40, 15874.16, -10379.72, -39018.81, -42083.53, 0.00, 0.00, 0.00, -61707.82, -0.03, -0.03, -0.03
41, 15865.42, -10379.14, -39049.08, -42096.09, 0.00, 0.00, 0.00, -61837.13, 0.00, 0.00, -0.03
42, 15864.80, -10370.47, -39068.14, -42095.06, 0.00, 0.00, 0.00, -61950.96, -0.03, -0.03, -0.03
43, 15861.96, -10382.09, -39048.65, -42090.25, 0.00, 0.00, 0.00, -61849.42, -0.03, -0.03, -0.03
44, 15867.82, -10386.25, -39011.46, -42075.82, 0.00, 0.00, 0.00, -61705.34, -0.03, -0.03, 0.00
45, 15860.71, -10387.73, -39028.80, -42090.32, 0.00, 0.00, 0.00, -61790.57, 0.00, -0.03, -0.03
46, 15855.52, -10383.08, -39062.00, -42106.26, 0.00, 0.00, 0.00, -61940.70, 0.00, -0.03, -0.03
47, 15858.88, -10386.77, -39044.94, -42094.30, 0.00, 0.00, 0.00, -61867.21, -0.03, -0.03, -0.03
48, 15866.07, -10390.90, -39005.71, -42074.21, 0.00, 0.00, 0.00, -61702.21, -0.03, -0.03, 0.00
49, 15870.21, -10381.87, -39009.43, -42072.15, 0.00, 0.00, 0.00, -61740.63, -0.03, 0.00, 0.00
50, 15870.32, -10374.47, -39042.30, -42086.19, 0.00, 0.00, 0.00, -61902.89, -0.03, 0.00, -0.03
51, 15863.64, -10380.49, -39045.64, -42095.02, 0.00, 0.00, 0.00, -61885.00, -0.03, -0.03, -0.03
52, 15879.30, -10377.65, -39006.95, -42076.87, 0.00, 0.00, 0.00, -61715.36, 0.00, 0.00, 0.00
53, 15890.46, -10367.90, -38999.75, -42070.65, 0.00, 0.00, 0.00, -61709.95, -0.03, -0.03, -0.03
54, 15878.10, -10368.93, -39041.66, -42093.03, 0.00, 0.00, 0.00, -61885.63, -0.03, -0.03, -0.03
55, 15877.96, -10369.55, -39044.00, -42095.46, 0.00, 0.00, 0.00, -61905.21, 0.00, -0.03, -0.03
56, 15882.57, -10376.28, -39012.71, -42085.67, 0.00, 0.00, 0.00, -61744.39, 0.00, 0.00, -0.03
57, 15893.18, -10366.45, -39001.13, -42076.40, 0.00, 0.00, 0.00, -61700.91, 0.00, -0.03, -0.03
58, 15876.89, -10370.58, -39047.02, -42100.34, 0.00, 0.00, 0.00, -61868.53, 0.00, -0.03, -0.03
59, 15878.52, -10364.62, -39054.09, -42099.15, 0.00, 0.00, 0.00, -61921.68, 0.00, -0.03, 0.00
60, 15887.37, -10366.22, -39015.80, -42084.94, 0.00, 0.00, 0.00, -61761.22, 0.00, -0.03, 0.00
61, 15882.39, -10373.67, -39004.29, -42088.16, 0.00, 0.00, 0.00, -61688.42, -0.03, -0.03, -0.03
62, 15877.07, -10367.14, -39031.71, -42092.54, 0.00, 0.00, 0.00, -61826.15, 0.00, -0.03, 0.00
63, 15875.50, -10365.89, -39048.52, -42093.65, 0.00, 0.00, 0.00, -61916.05, 0.00, -0.03, 0.00
64, 15876.18, -10375.34, -39025.61, -42085.14, 0.00, 0.00, 0.00, -61791.95, 0.00, 0.00, -0.03
65, 15881.05, -10374.85, -39000.91, -42072.44, 0.00, 0.00, 0.00, -61678.27, -0.03, -0.03, -0.03
66, 15875.01, -10376.37, -39030.75, -42086.14, 0.00, 0.00, 0.00, -61797.00, -0.03, -0.03, -0.03
67, 15872.58, -10374.29, -39057.82, -42096.45, 0.00, 0.00, 0.00, -61928.77, -0.03, -0.03, -0.03
68, 15879.33, -10373.69, -39031.66, -42083.13, 0.00, 0.00, 0.00, -61826.91, -0.03, -0.03, -0.03
69, 15872.40, -10389.13, -39011.97, -42083.44, 0.00, 0.00, 0.00, -61693.43, 0.00, 0.00, -0.03
70, 15875.04, -10382.03, -39024.78, -42089.03, 0.00, 0.00, 0.00, -61768.80, -0.03, -0.03, 0.00
71, 15862.12, -10383.52, -39059.88, -42105.75, 0.00, 0.00, 0.00, -61925.80, -0.03, -0.03, -0.03
72, 15857.29, -10391.37, -39048.86, -42104.70, 0.00, 0.00, 0.00, -61869.29, 0.00, -0.03, -0.03
73, 15860.80, -10397.52, -39017.27, -42095.73, 0.00, 0.00, 0.00, -61712.56, -0.03, 0.00, 0.00
74, 15866.81, -10385.45, -39022.08, -42096.80, 0.00, 0.00, 0.00, -61748.37, 0.00, 0.00, 0.00
75, 15876.73, -10371.19, -39051.11, -42102.93, 0.00, 0.00, 0.00, -61905.90, 0.00, -0.03, -0.03
76, 15886.32, -10367.23, -39042.86, -42092.00, 0.00, 0.00, 0.00, -61877.98, -0.03, -0.03, 0.00
77, 15889.27, -10370.61, -39012.35, -42078.07, 0.00, 0.00, 0.00, -61710.68, 0.00, 0.00, -0.03
78, 15890.77, -10366.81, -39011.14, -42077.70, 0.00, 0.00, 0.00, -61703.71, 0.00, -0.03, 0.00
79, 15889.54, -10359.83, -39042.55, -42087.11, 0.00, 0.00, 0.00, -61868.66, 0.00, 0.00, -0.03
80, 15886.37, -10360.57, -39046.57, -42086.30, 0.00, 0.00, 0.00, -61894.75, -0.03, 0.00, 0.00
81, 15891.78, -10363.21, -39007.13, -42067.41, 0.00, 0.00, 0.00, -61727.07, -0.03, -0.03, 0.00
82, 15895.93, -10362.00, -38998.45, -42062.96, 0.00, 0.00, 0.00, -61680.35, 0.00, -0.03, 0.00
83, 15896.74, -10349.51, -39033.59, -42074.30, 0.00, 0.00, 0.00, -61834.80, 0.00, 0.00, -0.03
84, 15893.77, -10353.82, -39051.89, -42084.60, 0.00, 0.00, 0.00, -61909.32, 0.00, -0.03, -0.03
85, 15903.74, -10355.70, -39010.21, -42065.96, 0.00, 0.00, 0.00, -61759.48, -0.03, 0.00, -0.03
86, 15890.88, -10370.00, -39001.58, -42068.42, 0.00, 0.00, 0.00, -61684.46, -0.03, -0.03, -0.03
87, 15883.51, -10367.99, -39031.31, -42081.40, 0.00, 0.00, 0.00, -61818.75, -0.03, -0.03, -0.03
88, 15876.47, -10371.37, -39061.24, -42097.18, 0.00, 0.00, 0.00, -61932.73, -0.03, 0.00, -0.03
89, 15886.08, -10368.95, -39032.70, -42082.57, 0.00, 0.00, 0.00, -61812.81, 0.00, -0.03, -0.03
90, 15898.19, -10363.50, -39001.18, -42064.89, 0.00, 0.00, 0.00, -61681.58, 0.00, -0.03, -0.03
91, 15890.17, -10362.51, -39028.25, -42078.36, 0.00, 0.00, 0.00, -61790.88, -0.03, -0.03, -0.03
92, 15881.45, -10364.88, -39057.06, -42094.05, 0.00, 0.00, 0.00, -61928.21, -0.03, -0.03, -0.03
93, 15889.97, -10365.53, -39033.95, -42081.96, 0.00, 0.00, 0.00, -61835.50, 0.00, 0.00, 0.00
94, 15895.69, -10368.21, -39000.24, -42070.05, 0.00, 0.00, 0.00, -61686.79, 0.00, -0.03, -0.03
95, 15894.97, -10365.20, -39013.89, -42082.12, 0.00, 0.00, 0.00, -61754.87, 0.00, -0.03, -0.03
96, 15883.37, -10367.54, -39050.80, -42103.73, 0.00, 0.00, 0.00, -61912.95, 0.00, 0.00, -0.03
97, 15877.63, -10378.34, -39042.53, -42106.26, 0.00, 0.00, 0.00, -61868.87, -0.03, 0.00, -0.03
98, 15880.76, -10381.96, -39009.76, -42095.60, 0.00, 0.00, 0.00, -61708.94, -0.03, -0.03, 0.00
99, 15872.93, -10382.88, -39020.76, -42102.75, 0.00, 0.00, 0.00, -61738.71, 0.00, -0.03, -0.03
100, 15873.60, -10371.14, -39053.50, -42111.45, 0.00, 0.00, 0.00, -61901.61, -0.03, -0.03, 0.00
101, 15874.61, -10369.02, -39053.68, -42105.61, 0.00, 0.00, 0.00, -61892.63, -0.03, -0.03, -0.03
102, 15889.32, -10364.97, -39013.74, -42078.14, 0.00, 0.00, 0.00, -61715.64, 0.00, -0.03, -0.03
103, 15890.61, -10358.96, -39010.30, -42071.28, 0.00, 0.00, 0.00, -61695.42, 0.00, 0.00, -0.03
104, 15889.09, -10351.99, -39043.85, -42082.05, 0.00, 0.00, 0.00, -61859.59, 0.00, 0.00, 0.00
105, 15881.43, -10359.97, -39055.85, -42087.28, 0.00, 0.00, 0.00, -61902.66, -0.03, 0.00, -0.03
106, 15896.58, -10355.50, -39011.41, -42064.37, 0.00, 0.00, 0.00, -61731.74, -0.03, -0.03, -0.03
107, 15890.68, -10362.47, -39009.96, -42069.04, 0.00, 0.00, 0.00, -61680.89, 0.00, 0.00, -0.03
108, 15884.89, -10357.80, -39047.47, -42079.41, 0.00, 0.00, 0.00, -61840.82, 0.00, -0.03, -0.03
109, 15879.10, -10358.89, -39065.02, -42085.29, 0.00, 0.00, 0.00, -61920.97, 0.00, 0.00, -0.03
110, 15879.19, -10369.49, -39040.32, -42075.57, 0.00, 0.00, 0.00, -61784.54, 0.00, -0.03, -0.03
111, 15885.81, -10366.40, -39014.32, -42061.98, 0.00, 0.00, 0.00, -61680.33, 0.00, -0.03, -0.03
112, 15879.93, -10361.75, -39041.84, -42072.55, 0.00, 0.00, 0.00, -61808.81, -0.03, 0.00, 0.00
113, 15865.69, -10370.70, -39071.21, -42086.63, 0.00, 0.00, 0.00, -61926.63, 0.00, 0.00, -0.03
114, 15870.86, -10377.62, -39040.25, -42074.83, 0.00, 0.00, 0.00, -61811.15, 0.00, -0.03, -0.03
115, 15887.24, -10370.05, -39003.48, -42060.75, 0.00, 0.00, 0.00, -61674.72, 0.00, -0.03, 0.00
116, 15881.27, -10363.65, -39029.79, -42079.19, 0.00, 0.00, 0.00, -61778.52, -0.03, 0.00, 0.00
117, 15879.64, -10360.35, -39059.20, -42095.62, 0.00, 0.00, 0.00, -61923.49, 0.00, -0.03, -0.03
118, 15883.69, -10365.89, -39034.68, -42084.06, 0.00, 0.00, 0.00, -61838.87, 0.00, -0.03, -0.03
119, 15882.14, -10377.69, -39003.05, -42073.87, 0.00, 0.00, 0.00, -61684.78, -0.03, -0.03, -0.03
120, 15871.53, -10383.73, -39023.60, -42087.39, 0.00, 0.00, 0.00, -61747.27, 0.00, -0.03, -0.03
121, 15870.61, -10374.32, -39053.75, -42098.86, 0.00, 0.00, 0.00, -61905.90, 0.00, 0.00, 0.00
122, 15874.57, -10375.66, -39044.29, -42096.52, 0.00, 0.00, 0.00, -61869.45, -0.03, -0.03, 0.00
123, 15880.91, -10378.50, -39008.06, -42079.32, 0.00, 0.00, 0.00, -61702.14, -0.03, -0.03, -0.03
124, 15876.49, -10376.60, -39008.91, -42072.89, 0.00, 0.00, 0.00, -61714.33, 0.00, -0.03, -0.03
125, 15870.10, -10377.33, -39042.57, -42083.95, 0.00, 0.00, 0.00, -61881.56, -0.03, -0.03, -0.03
126, 15872.02, -10378.18, -39039.53, -42079.17, 0.00, 0.00, 0.00, -61881.90, 0.00, -0.03, -0.03
127, 15887.37, -10373.96, -38998.27, -42055.48, 0.00, 0.00, 0.00, -61704.71, 0.00, 0.00, 0.00
128, 15885.99, -10373.91, -39000.46, -42057.15, 0.00, 0.00, 0.00, -61679.73, 0.00, -0.03, 0.00
129, 15877.76, -10366.18, -39037.34, -42070.70, 0.00, 0.00, 0.00, -61839.77, -0.03, -0.03, 0.00
130, 15876.62, -10369.22, -39049.30, -42080.84, 0.00, 0.00, 0.00, -61889.59, -0.03, -0.03, -0.03
131, 15881.61, -10371.97, -39018.86, -42073.22, 0.00, 0.00, 0.00, -61742.20, 0.00, 0.00, -0.03
132, 15889.65, -10367.45, -38999.43, -42061.49, 0.00, 0.00, 0.00, -61664.93, 0.00, 0.00, -0.03
133, 15876.71, -10372.86, -39036.80, -42081.40, 0.00, 0.00, 0.00, -61819.38, -0.03, 0.00, -0.03
134, 15885.14, -10363.56, -39045.79, -42077.54, 0.00, 0.00, 0.00, -61901.99, 0.00, -0.03, 0.00
135, 15900.56, -10361.31, -39005.11, -42057.73, 0.00, 0.00, 0.00, -61759.93, -0.03, -0.03, -0.03
136, 15897.21, -10371.25, -38984.28, -42050.36, 0.00, 0.00, 0.00, -61654.31, -0.03, 0.00, -0.03
137, 15890.41, -10368.46, -39008.80, -42057.69, 0.00, 0.00, 0.00, -61768.77, -0.03, -0.03, 0.00
138, 15880.47, -10371.28, -39038.75, -42072.55, 0.00, 0.00, 0.00, -61897.03, -0.03, -0.03, -0.03
139, 15881.16, -10376.95, -39019.51, -42066.63, 0.00, 0.00, 0.00, -61802.32, -0.03, 0.00, -0.03
140, 15885.41, -10383.10, -38985.53, -42051.09, 0.00, 0.00, 0.00, -61660.86, -0.03, 0.00, -0.03
141, 15870.88, -10385.89, -39009.80, -42066.41, 0.00, 0.00, 0.00, -61755.50, -0.03, 0.00, -0.03
142, 15872.22, -10378.85, -39044.11, -42085.81, 0.00, 0.00, 0.00, -61909.43, 0.00, 0.00, 0.00
143, 15873.18, -10385.04, -39034.01, -42090.30, 0.00, 0.00, 0.00, -61847.45, 0.00, 0.00, 0.00
144, 15878.77, -10387.62, -38993.49, -42072.35, 0.00, 0.00, 0.00, -61684.62, 0.00, -0.03, 0.00
145, 15874.23, -10385.98, -39002.70, -42076.75, 0.00, 0.00, 0.00, -61727.60, 0.00, 0.00, -0.03
146, 15861.33, -10390.10, -39050.89, -42101.45, 0.00, 0.00, 0.00, -61902.28, -0.03, -0.03, -0.03
147, 15875.19, -10382.00, -39037.32, -42090.55, 0.00, 0.00, 0.00, -61868.64, 0.00, -0.03, -0.03
148, 15878.86, -10389.63, -39002.92, -42077.74, 0.00, 0.00, 0.00, -61707.89, -0.03, -0.03, -0.03
149, 15876.06, -10390.59, -39016.78, -42085.92, 0.00, 0.00, 0.00, -61720.81, -0.03, 0.00, 0.00
150, 15872.24, -10378.23, -39055.13, -42100.61, 0.00, 0.00, 0.00, -61887.11, -0.03, -0.03, 0.00
151, 15875.73, -10374.00, -39057.79, -42100.31, 0.00, 0.00, 0.00, -61904.59, 0.00, -0.03, 0.00
152, 15883.06, -10376.39, -39026.34, -42086.48, 0.00, 0.00, 0.00, -61745.17, 0.00, 0.00, -0.03
153, 15894.95, -10362.18, -39011.41, -42075.50, 0.00, 0.00, 0.00, -61697.23, 0.00, -0.03, -0.03
154, 15895.44, -10351.23, -39040.32, -42083.26, 0.00, 0.00, 0.00, -61848.86, -0.03, -0.03, -0.03
155, 15878.48, -10368.68, -39073.44, -42104.52, 0.00, 0.00, 0.00, -61929.29, -0.03, 0.00, -0.03
156, 15899.47, -10361.53, -39030.93, -42080.80, 0.00, 0.00, 0.00, -61771.10, 0.00, -0.03, -0.03
157, 15903.78, -10356.90, -39004.51, -42069.69, 0.00, 0.00, 0.00, -61681.94, 0.00, 0.00, 0.00
158, 15876.69, -10373.38, -39048.21, -42094.19, 0.00, 0.00, 0.00, -61834.73, -0.03, -0.03, 0.00
159, 15864.78, -10380.28, -39071.38, -42100.58, 0.00, 0.00, 0.00, -61933.13, 0.00, -0.03, 0.00
160, 15874.83, -10380.84, -39036.92, -42079.64, 0.00, 0.00, 0.00, -61799.64, -0.03, -0.03, 0.00
161, 15879.10, -10389.11, -39015.44, -42066.68, 0.00, 0.00, 0.00, -61686.41, 0.00, -0.03, 0.00
162, 15881.67, -10375.70, -39030.61, -42065.71, 0.00, 0.00, 0.00, -61791.24, -0.03, -0.03, -0.03
163, 15877.52, -10371.48, -39060.88, -42079.53, 0.00, 0.00, 0.00, -61924.12, 0.00, -0.03, -0.03
164, 15867.06, -10386.10, -39054.00, -42086.30, 0.00, 0.00, 0.00, -61843.27, 0.00, -0.03, 0.00
165, 15885.58, -10377.74, -39012.15, -42066.79, 0.00, 0.00, 0.00, -61686.45, 0.00, -0.03, 0.00
166, 15882.32, -10372.91, -39022.70, -42074.65, 0.00, 0.00, 0.00, -61756.23, -0.03, -0.03, 0.00
167, 15880.24, -10366.20, -39045.16, -42084.06, 0.00, 0.00, 0.00, -61900.98, -0.03, -0.03, 0.00
168, 15880.40, -10370.96, -39033.27, -42081.72, 0.00, 0.00, 0.00, -61846.70, 0.00, -0.03, -0.03
169, 15881.94, -10377.49, -39002.50, -42073.67, 0.00, 0.00, 0.00, -61695.24, 0.00, -0.03, -0.03
170, 15877.63, -10378.45, -39011.55, -42079.23, 0.00, 0.00, 0.00, -61734.80, 0.00, 0.00, -0.03
171, 15869.92, -10376.33, -39049.73, -42093.99, 0.00, 0.00, 0.00, -61897.66, -0.03, 0.00, -0.03
172, 15870.50, -10377.33, -39053.39, -42097.63, 0.00, 0.00, 0.00, -61885.77, -0.03, -0.03, -0.03
173, 15887.13, -10376.06, -39020.78, -42081.76, 0.00, 0.00, 0.00, -61722.38, -0.03, -0.03, 0.00
174, 15879.04, -10383.14, -39028.58, -42092.40, 0.00, 0.00, 0.00, -61723.71, -0.03, -0.03, -0.03
175, 15875.21, -10376.28, -39060.97, -42105.25, 0.00, 0.00, 0.00, -61884.94, -0.03, 0.00, -0.03
176, 15878.99, -10374.38, -39064.50, -42105.28, 0.00, 0.00, 0.00, -61913.26, 0.00, -0.03, 0.00
177, 15890.06, -10374.96, -39027.29, -42087.39, 0.00, 0.00, 0.00, -61753.69, -0.03, -0.03, 0.00
178, 15891.89, -10371.03, -39016.67, -42079.97, 0.00, 0.00, 0.00, -61704.25, 0.00, -0.03, 0.00
179, 15882.32, -10369.96, -39055.74, -42096.31, 0.00, 0.00, 0.00, -61863.64, -0.03, -0.03, -0.03
180, 15878.32, -10374.70, -39077.80, -42104.36, 0.00, 0.00, 0.00, -61939.50, -0.03, -0.03, -0.03
181, 15889.14, -10374.99, -39046.35, -42087.66, 0.00, 0.00, 0.00, -61791.53, 0.00, 0.00, 0.00
182, 15890.17, -10375.17, -39030.77, -42083.89, 0.00, 0.00, 0.00, -61702.61, 0.00, -0.03, -0.03
183, 15886.79, -10366.34, -39049.23, -42090.32, 0.00, 0.00, 0.00, -61823.89, 0.00, 0.00, -0.03
184, 15880.49, -10366.78, -39063.27, -42095.24, 0.00, 0.00, 0.00, -61926.67, 0.00, -0.03, 0.00
185, 15891.46, -10368.33, -39031.15, -42078.14, 0.00, 0.00, 0.00, -61801.52, 0.00, -0.03, -0.03
186, 15897.57, -10368.44, -39001.98, -42067.86, 0.00, 0.00, 0.00, -61672.37, -0.03, 0.00, 0.00
187, 15897.25, -10362.42, -39022.03, -42078.92, 0.00, 0.00, 0.00, -61772.44, -0.03, -0.03, -0.03
188, 15894.68, -10359.16, -39048.41, -42088.40, 0.00, 0.00, 0.00, -61904.85, 0.00, 0.00, 0.00
189, 15898.97, -10362.33, -39022.50, -42069.09, 0.00, 0.00, 0.00, -61815.40, -0.03, 0.00, -0.03
190, 15897.77, -10378.00, -38999.41, -42062.56, 0.00, 0.00, 0.00, -61676.64, 0.00, 0.00, 0.00
191, 15890.32, -10379.21, -39020.54, -42070.43, 0.00, 0.00, 0.00, -61748.64, 0.00, -0.03, -0.03
192, 15879.37, -10377.38, -39056.27, -42084.31, 0.00, 0.00, 0.00, -61908.81, -0.03, -0.03, -0.03
193, 15882.66, -10380.17, -39043.55, -42082.79, 0.00, 0.00, 0.00, -61866.79, -0.03, -0.03, -0.03
194, 15888.94, -10387.66, -39009.36, -42075.53, 0.00, 0.00, 0.00, -61708.07, -0.03, 0.00, 0.00
195, 15887.64, -10384.37, -39014.16, -42080.64, 0.00, 0.00, 0.00, -61732.03, -0.03, -0.03, -0.03
196, 15880.33, -10375.84, -39051.74, -42099.33, 0.00, 0.00, 0.00, -61900.94, 0.00, -0.03, -0.03
197, 15879.53, -10378.12, -39061.06, -42108.81, 0.00, 0.00, 0.00, -61908.03, -0.03, -0.03, -0.03
198, 15900.49, -10370.70, -39020.80, -42083.64, 0.00, 0.00, 0.00, -61734.55, 0.00, 0.00, 0.00
199, 15898.48, -10366.72, -39017.25, -42076.44, 0.00, 0.00, 0.00, -61714.55, 0.00, 0.00, -0.03
200, 15869.54, -10380.02, -39073.13, -42107.20, 0.00, 0.00, 0.00, -61899.31, -0.03, -0.03, -0.03
201, 15868.35, -10379.57, -39078.67, -42112.61, 0.00, 0.00, 0.00, -61939.61, 0.00, 0.00, -0.03
202, 15887.49, -10376.66, -39038.57, -42096.85, 0.00, 0.00, 0.00, -61778.52, 0.00, -0.03, -0.03
203, 15890.32, -10372.93, -39026.79, -42093.90, 0.00, 0.00, 0.00, -61713.39, -0.03, -0.03, -0.03
204, 15885.29, -10365.78, -39064.68, -42110.28, 0.00, 0.00, 0.00, -61866.41, -0.03, -0.03, 0.00
205, 15876.26, -10370.70, -39088.53, -42123.22, 0.00, 0.00, 0.00, -61953.38, 0.00, -0.03, -0.03
206, 15890.08, -10367.28, -39045.50, -42101.61, 0.00, 0.00, 0.00, -61802.48, 0.00, -0.03, -0.03
207, 15899.49, -10364.41, -39013.02, -42083.91, 0.00, 0.00, 0.00, -61690.30, -0.03, 0.00, -0.03
208, 15888.40, -10367.07, -39046.77, -42097.99, 0.00, 0.00, 0.00, -61819.92, -0.03, -0.03, -0.03
209, 15877.96, -10370.43, -39072.95, -42105.68, 0.00, 0.00, 0.00, -61936.12, -0.03, 0.00, 0.00
210, 15884.69, -10367.99, -39038.37, -42082.77, 0.00, 0.00, 0.00, -61811.98, -0.03, -0.03, -0.03
211, 15898.93, -10365.55, -39000.08, -42061.71, 0.00, 0.00, 0.00, -61669.15, -0.03, -0.03, -0.03
212, 15886.68, -10369.87, -39026.01, -42080.55, 0.00, 0.00, 0.00, -61771.86, -0.03, -0.03, 0.00
213, 15876.00, -10370.49, -39057.23, -42094.46, 0.00, 0.00, 0.00, -61915.92, -0.03, -0.03, -0.03
214, 15883.01, -10371.68, -39033.86, -42081.45, 0.00, 0.00, 0.00, -61835.00, -0.03, -0.03, -0.03
215, 15900.14, -10369.13, -38988.17, -42049.98, 0.00, 0.00, 0.00, -61666.43, 0.00, -0.03, 0.00
216, 15884.02, -10379.03, -39006.00, -42060.82, 0.00, 0.00, 0.00, -61725.55, 0.00, 0.00, 0.00
217, 15872.26, -10380.26, -39048.16, -42086.97, 0.00, 0.00, 0.00, -61895.27, -0.03, -0.03, -0.03
218, 15872.87, -10385.09, -39048.68, -42096.78, 0.00, 0.00, 0.00, -61872.06, 0.00, 0.00, -0.03
219, 15881.56, -10387.17, -39015.17, -42086.68, 0.00, 0.00, 0.00, -61707.22, -0.03, -0.03, -0.03
220, 15872.82, -10393.18, -39025.05, -42098.32, 0.00, 0.00, 0.00, -61728.57, 0.00, -0.03, -0.03
221, 15865.25, -10391.46, -39057.86, -42116.36, 0.00, 0.00, 0.00, -61893.92, -0.03, -0.03, -0.03
222, 15868.93, -10390.45, -39057.32, -42114.84, 0.00, 0.00, 0.00, -61900.05, 0.00, -0.03, -0.03
223, 15875.68, -10395.26, -39027.04, -42100.98, 0.00, 0.00, 0.00, -61741.19, 0.00, 0.00, -0.03
224, 15881.63, -10386.86, -39017.23, -42090.39, 0.00, 0.00, 0.00, -61704.29, 0.00, 0.00, -0.03
225, 15873.78, -10381.04, -39054.51, -42105.48, 0.00, 0.00, 0.00, -61866.61, -0.03, 0.00, 0.00
226, 15866.36, -10389.11, -39073.46, -42119.00, 0.00, 0.00, 0.00, -61930.89, 0.00, 0.00, -0.03
227, 15880.04, -10389.05, -39038.91, -42098.41, 0.00, 0.00, 0.00, -61777.02, 0.00, 0.00, 0.00
228, 15886.39, -10382.92, -39017.52, -42078.45, 0.00, 0.00, 0.00, -61695.53, -0.03, -0.03, -0.03
229, 15874.57, -10383.26, -39052.36, -42092.56, 0.00, 0.00, 0.00, -61842.92, -0.03, 0.00, 0.00
230, 15864.08, -10392.93, -39079.97, -42108.94, 0.00, 0.00, 0.00, -61940.77, 0.00, -0.03, 0.00
231, 15871.73, -10396.49, -39052.09, -42096.27, 0.00, 0.00, 0.00, -61811.45, 0.00, -0.03, -0.03
232, 15873.43, -10401.16, -39029.68, -42088.78, 0.00, 0.00, 0.00, -61704.65, -0.03, -0.03, 0.00
233, 15877.45, -10386.92, -39043.15, -42089.12, 0.00, 0.00, 0.00, -61810.04, -0.03, -0.03, -0.03
234, 15875.50, -10381.09, -39066.40, -42097.00, 0.00, 0.00, 0.00, -61929.39, -0.03, -0.03, 0.00
235, 15879.33, -10383.21, -39045.30, -42087.98, 0.00, 0.00, 0.00, -61829.77, -0.03, -0.03, -0.03
236, 15876.29, -10393.56, -39024.07, -42083.77, 0.00, 0.00, 0.00, -61700.11, -0.03, 0.00, -0.03
237, 15870.95, -10390.23, -39043.69, -42089.50, 0.00, 0.00, 0.00, -61785.14, -0.03, -0.03, 0.00
238, 15870.25, -10380.87, -39072.93, -42099.55, 0.00, 0.00, 0.00, -61931.86, -0.03, 0.00, 0.00
239, 15879.89, -10378.85, -39054.73, -42092.07, 0.00, 0.00, 0.00, -61864.13, -0.03, -0.03, -0.03
240, 15879.64, -10387.15, -39016.22, -42079.93, 0.00, 0.00, 0.00, -61702.41, 0.00, 0.00, 0.00
241, 15874.75, -10385.33, -39021.50, -42085.45, 0.00, 0.00, 0.00, -61740.19, 0.00, 0.00, -0.03
242, 15865.83, -10381.29, -39050.91, -42100.47, 0.00, 0.00, 0.00, -61897.77, -0.03, 0.00, -0.03
243, 15867.30, -10389.29, -39048.43, -42108.83, 0.00, 0.00, 0.00, -61879.66, -0.03, -0.03, 0.00
244, 15866.68, -10400.87, -39019.93, -42104.02, 0.00, 0.00, 0.00, -61722.42, -0.03, -0.03, -0.03
245, 15860.80, -10402.19, -39026.68, -42107.33, 0.00, 0.00, 0.00, -61730.31, 0.00, -0.03, -0.03
246, 15857.96, -10392.04, -39060.66, -42115.74, 0.00, 0.00, 0.00, -61890.08, -0.03, -0.03, -0.03
247, 15855.12, -10397.14, -39067.83, -42119.83, 0.00, 0.00, 0.00, -61914.02, 0.00, -0.03, -0.03
248, 15867.15, -10397.67, -39028.56, -42098.04, 0.00, 0.00, 0.00, -61747.07, 0.00, -0.03, -0.03
249, 15866.74, -10400.15, -39022.32, -42094.17, 0.00, 0.00, 0.00, -61708.63, -0.03, 0.00, -0.03
250, 15859.41, -10394.92, -39058.87, -42105.90, 0.00, 0.00, 0.00, -61869.98, -0.03, -0.03, -0.03
251, 15864.91, -10388.00, -39070.98, -42102.77, 0.00, 0.00, 0.00, -61927.11, -0.03, 0.00, -0.03
252, 15877.65, -10385.67, -39037.77, -42080.71, 0.00, 0.00, 0.00, -61772.71, 0.00, -0.03, -0.03
253, 15877.54, -10388.91, -39023.39, -42075.55, 0.00, 0.00, 0.00, -61690.72, -0.03, -0.03, -0.03
254, 15874.28, -10380.87, -39054.38, -42087.57, 0.00, 0.00, 0.00, -61830.11, -0.03, -0.03, -0.03
255, 15867.23, -10379.64, -39079.18, -42101.54, 0.00, 0.00, 0.00, -61935.70, 0.00, 0.00, -0.03
0, 15877.07, -10382.30, -39049.57, -42092.60, 0.00, 0.00, 0.00, -61808.16, 0.00, -0.03, -0.03
1, 15878.23, -10385.54, -39020.33, -42081.65, 0.00, 0.00, 0.00, -61683.28, 0.00, -0.03, -0.03
2, 15876.38, -10374.81, -39032.22, -42077.63, 0.00, 0.00, 0.00, -61779.79, -0.03, 0.00, 0.00
3, 15864.55, -10380.87, -39072.59, -42097.61, 0.00, 0.00, 0.00, -61921.13, 0.00, -0.03, 0.00
4, 15869.96, -10383.08, -39051.22, -42084.58, 0.00, 0.00, 0.00, -61825.19, -0.03, 0.00, -0.03
5, 15887.06, -10380.73, -39006.88, -42061.04, 0.00, 0.00, 0.00, -61671.84, 0.00, -0.03, -0.03
6, 15880.38, -10382.36, -39024.22, -42072.89, 0.00, 0.00, 0.00, -61747.74, -0.03, -0.03, -0.03
7, 15864.40, -10389.18, -39067.09, -42098.23, 0.00, 0.00, 0.00, -61910.75, -0.03, -0.03, -0.03
8, 15877.00, -10382.61, -39041.21, -42076.04, 0.00, 0.00, 0.00, -61844.48, -0.03, -0.03, 0.00
9, 15880.20, -10386.90, -38999.34, -42056.86, 0.00, 0.00, 0.00, -61677.22, 0.00, -0.03, -0.03
10, 15871.50, -10390.70, -39011.79, -42070.21, 0.00, 0.00, 0.00, -61719.09, -0.03, -0.03, -0.03
11, 15865.96, -10384.55, -39045.84, -42085.59, 0.00, 0.00, 0.00, -61883.80, -0.03, 0.00, 0.00
12, 15868.08, -10389.22, -39047.58, -42087.80, 0.00, 0.00, 0.00, -61873.79, -0.03, -0.03, 0.00
13, 15867.01, -10399.46, -39019.44, -42076.55, 0.00, 0.00, 0.00, -61714.33, 0.00, -0.03, -0.03
14, 15867.46, -10396.96, -39017.72, -42078.19, 0.00, 0.00, 0.00, -61705.45, -0.03, 0.00, -0.03
15, 15848.30, -10407.33, -39069.60, -42110.11, 0.00, 0.00, 0.00, -61889.00, -0.03, -0.03, 0.00
16, 15856.17, -10398.19, -39066.20, -42101.10, 0.00, 0.00, 0.00, -61913.59, -0.03, -0.03, 0.00
17, 15857.74, -10408.07, -39036.70, -42091.78, 0.00, 0.00, 0.00, -61756.88, 0.00, -0.03, 0.00
18, 15872.35, -10399.24, -39022.50, -42081.14, 0.00, 0.00, 0.00, -61696.89, 0.00, -0.03, 0.00
19, 15860.93, -10398.01, -39063.09, -42104.47, 0.00, 0.00, 0.00, -61863.70, 0.00, 0.00, -0.03
20, 15854.79, -10399.93, -39077.24, -42114.51, 0.00, 0.00, 0.00, -61936.75, -0.03, -0.03, -0.03
21, 15867.75, -10394.14, -39037.54, -42089.05, 0.00, 0.00, 0.00, -61779.93, -0.03, -0.03, -0.03
22, 15874.34, -10394.54, -39020.04, -42076.53, 0.00, 0.00, 0.00, -61683.28, 0.00, 0.00, 0.00
23, 15871.26, -10388.96, -39053.75, -42092.94, 0.00, 0.00, 0.00, -61821.55, 0.00, -0.03, -0.03
24, 15869.11, -10384.02, -39082.00, -42105.95, 0.00, 0.00, 0.00, -61939.07, -0.03, -0.03, -0.03
25, 15889.12, -10369.67, -39041.32, -42075.68, 0.00, 0.00, 0.00, -61802.84, -0.03, -0.03, -0.03
26, 15889.05, -10376.55, -39015.77, -42065.02, 0.00, 0.00, 0.00, -61676.84, -0.03, 0.00, -0.03
27, 15880.22, -10379.86, -39042.77, -42079.21, 0.00, 0.00, 0.00, -61783.75, 0.00, -0.03, -0.03
28, 15877.63, -10368.91, -39064.03, -42083.10, 0.00, 0.00, 0.00, -61911.56, -0.03, -0.03, 0.00
29, 15899.20, -10352.75, -39027.02, -42054.43, 0.00, 0.00, 0.00, -61808.23, -0.03, -0.03, -0.03
30, 15890.84, -10368.30, -39009.89, -42052.44, 0.00, 0.00, 0.00, -61672.24, 0.00, -0.03, -0.03
31, 15877.52, -10374.70, -39033.07, -42067.21, 0.00, 0.00, 0.00, -61749.11, -0.03, -0.03, 0.00
32, 15869.94, -10372.95, -39064.34, -42084.58, 0.00, 0.00, 0.00, -61907.56, -0.03, -0.03, -0.03
33, 15875.46, -10373.71, -39053.84, -42080.55, 0.00, 0.00, 0.00, -61867.91, 0.00, -0.03, -0.03
34, 15877.81, -10380.64, -39021.38, -42068.13, 0.00, 0.00, 0.00, -61706.55, -0.03, 0.00, 0.00
35, 15870.77, -10386.54, -39032.54, -42078.88, 0.00, 0.00, 0.00, -61734.38, -0.03, 0.00, -0.03
36, 15880.13, -10368.39, -39058.58, -42085.00, 0.00, 0.00, 0.00, -61894.14, -0.03, -0.03, -0.03
37, 15876.47, -10372.01, -39058.55, -42087.26, 0.00, 0.00, 0.00, -61895.22, 0.00, -0.03, 0.00
38, 15878.70, -10381.13, -39027.33, -42077.67, 0.00, 0.00, 0.00, -61733.26, -0.03, -0.03, -0.03
39, 15894.91, -10362.80, -39011.32, -42064.02, 0.00, 0.00, 0.00, -61696.91, 0.00, -0.03, -0.03
40, 15873.49, -10370.20, -39061.37, -42091.38, 0.00, 0.00, 0.00, -61875.08, 0.00, -0.03, -0.03
41, 15858.88, -10382.18, -39084.80, -42105.34, 0.00, 0.00, 0.00, -61931.81, -0.03, -0.03, -0.03
42, 15867.23, -10386.01, -39052.45, -42092.38, 0.00, 0.00, 0.00, -61773.56, -0.03, -0.03, -0.03
43, 15878.43, -10381.07, -39034.97, -42082.32, 0.00, 0.00, 0.00, -61706.88, 0.00, 0.00, -0.03
44, 15869.65, -10376.51, -39067.74, -42098.82, 0.00, 0.00, 0.00, -61855.81, -0.03, 0.00, -0.03
45, 15869.72, -10375.70, -39080.39, -42102.41, 0.00, 0.00, 0.00, -61937.17, -0.03, -0.03, -0.03
46, 15871.33, -10385.65, -39054.13, -42096.02, 0.00, 0.00, 0.00, -61807.06, -0.03, -0.03, 0.00
47, 15887.80, -10373.38, -39024.56, -42077.07, 0.00, 0.00, 0.00, -61698.77, -0.03, -0.03, -0.03
48, 15884.33, -10367.81, -39056.30, -42090.23, 0.00, 0.00, 0.00, -61825.17, -0.03, 0.00, 0.00
49, 15856.68, -10385.63, -39098.39, -42117.55, 0.00, 0.00, 0.00, -61957.16, -0.03, -0.03, 0.00
50, 15866.32, -10385.45, -39065.64, -42097.34, 0.00, 0.00, 0.00, -61840.43, -0.03, 0.00, -0.03
51, 15872.31, -10385.56, -39035.78, -42081.83, 0.00, 0.00, 0.00, -61704.80, -0.03, 0.00, -0.03
52, 15861.94, -10385.11, -39058.89, -42090.88, 0.00, 0.00, 0.00, -61797.59, -0.03, -0.03, 0.00
53, 15855.95, -10382.85, -39092.62, -42104.65, 0.00, 0.00, 0.00, -61944.73, -0.03, -0.03, -0.03
54, 15860.35, -10385.31, -39071.45, -42094.41, 0.00, 0.00, 0.00, -61864.62, 0.00, 0.00, -0.03
55, 15866.59, -10388.58, -39029.09, -42072.80, 0.00, 0.00, 0.00, -61698.19, -0.03, -0.03, -0.03
56, 15861.54, -10390.05, -39042.48, -42079.95, 0.00, 0.00, 0.00, -61753.89, -0.03, -0.03, -0.03
57, 15866.94, -10375.90, -39065.86, -42084.51, 0.00, 0.00, 0.00, -61907.67, -0.03, 0.00, -0.03
58, 15862.05, -10380.62, -39055.65, -42085.00, 0.00, 0.00, 0.00, -61873.47, -0.03, -0.03, -0.03
59, 15866.43, -10390.63, -39020.60, -42078.88, 0.00, 0.00, 0.00, -61710.97, -0.03, -0.03, 0.00
60, 15867.39, -10386.88, -39021.20, -42082.63, 0.00, 0.00, 0.00, -61721.57, 0.00, -0.03, -0.03
61, 15857.58, -10385.76, -39064.05, -42100.65, 0.00, 0.00, 0.00, -61897.86, -0.03, -0.03, -0.03
62, 15859.10, -10385.09, -39067.59, -42103.62, 0.00, 0.00, 0.00, -61910.69, 0.00, 0.00, -0.03
63, 15863.17, -10392.35, -39031.66, -42087.55, 0.00, 0.00, 0.00, -61745.78, 0.00, -0.03, -0.03
64, 15872.24, -10382.79, -39020.58, -42074.61, 0.00, 0.00, 0.00, -61703.75, -0.03, -0.03, -0.03
65, 15858.92, -10385.33, -39068.70, -42098.73, 0.00, 0.00, 0.00, -61875.84, -0.03, 0.00, -0.03
66, 15841.37, -10403.28, -39093.36, -42116.68, 0.00, 0.00, 0.00, -61943.59, -0.03, -0.03, -0.03
67, 15861.67, -10397.41, -39052.39, -42091.44, 0.00, 0.00, 0.00, -61789.20, -0.03, -0.03, -0.03
68, 15862.23, -10400.87, -39042.68, -42088.33, 0.00, 0.00, 0.00, -61723.13, 0.00, -0.03, 0.00
69, 15862.65, -10388.53, -39065.98, -42091.64, 0.00, 0.00, 0.00, -61860.93, 0.00, -0.03, -0.03
70, 15856.46, -10388.22, -39089.82, -42100.14, 0.00, 0.00, 0.00, -61957.29, 0.00, -0.03, -0.03
71, 15852.93, -10398.84, -39066.13, -42089.88, 0.00, 0.00, 0.00, -61826.93, 0.00, -0.03, -0.03
72, 15859.01, -10399.82, -39037.52, -42077.20, 0.00, 0.00, 0.00, -61708.47, 0.00, 0.00, -0.03
73, 15856.39, -10391.01, -39058.75, -42084.36, 0.00, 0.00, 0.00, -61818.98, 0.00, -0.03, 0.00
74, 15849.26, -10389.36, -39086.81, -42098.39, 0.00, 0.00, 0.00, -61948.37, -0.03, -0.03, -0.03
75, 15861.04, -10391.08, -39057.46, -42087.02, 0.00, 0.00, 0.00, -61839.45, 0.00, -0.03, 0.00
76, 15860.24, -10398.23, -39038.35, -42088.27, 0.00, 0.00, 0.00, -61709.21, -0.03, 0.00, 0.00
77, 15860.66, -10389.18, -39052.00, -42088.91, 0.00, 0.00, 0.00, -61787.93, -0.03, -0.03, -0.03
78, 15850.60, -10391.59, -39084.24, -42102.68, 0.00, 0.00, 0.00, -61935.70, 0.00, -0.03, -0.03
79, 15861.65, -10385.31, -39063.81, -42092.34, 0.00, 0.00, 0.00, -61862.90, -0.03, -0.03, -0.03
80, 15870.59, -10388.89, -39035.20, -42088.78, 0.00, 0.00, 0.00, -61709.88, 0.00, 0.00, -0.03
81, 15877.87, -10374.41, -39031.87, -42084.13, 0.00, 0.00, 0.00, -61739.29, -0.03, -0.03, 0.00
82, 15861.49, -10379.17, -39069.11, -42099.09, 0.00, 0.00, 0.00, -61907.87, 0.00, -0.03, -0.03
83, 15852.75, -10394.28, -39067.88, -42101.43, 0.00, 0.00, 0.00, -61891.89, -0.03, -0.03, 0.00
84, 15853.85, -10401.27, -39035.00, -42090.55, 0.00, 0.00, 0.00, -61728.03, 0.00, 0.00, -0.03
85, 15860.10, -10389.18, -39030.32, -42085.96, 0.00, 0.00, 0.00, -61724.12, -0.03, 0.00, -0.03
86, 15852.37, -10387.39, -39071.32, -42107.02, 0.00, 0.00, 0.00, -61897.16, -0.03, -0.03, -0.03
87, 15843.36, -10397.38, -39083.61, -42116.88, 0.00, 0.00, 0.00, -61929.39, -0.03, -0.03, -0.03
88, 15863.50, -10388.89, -39034.28, -42084.73, 0.00, 0.00, 0.00, -61751.25, -0.03, -0.03, -0.03
89, 15864.75, -10389.58, -39030.32, -42083.84, 0.00, 0.00, 0.00, -61708.87, -0.03, 0.00, 0.00
90, 15860.75, -10379.52, -39063.61, -42092.16, 0.00, 0.00, 0.00, -61866.70, 0.00, 0.00, -0.03
91, 15848.28, -10391.12, -39091.10, -42108.16, 0.00, 0.00, 0.00, -61945.78, -0.03, -0.03, -0.03
92, 15863.35, -10388.78, -39051.40, -42086.41, 0.00, 0.00, 0.00, -61793.23, -0.03, -0.03, -0.03
93, 15867.12, -10389.25, -39032.18, -42076.51, 0.00, 0.00, 0.00, -61706.88, 0.00, -0.03, 0.00
94, 15860.17, -10385.49, -39062.60, -42089.65, 0.00, 0.00, 0.00, -61845.57, 0.00, -0.03, -0.03
95, 15858.32, -10381.69, -39081.67, -42098.28, 0.00, 0.00, 0.00, -61948.28, -0.03, -0.03, -0.03
96, 15869.94, -10379.39, -39054.98, -42089.41, 0.00, 0.00, 0.00, -61826.40, -0.03, -0.03, -0.03
97, 15870.14, -10381.58, -39030.52, -42080.49, 0.00, 0.00, 0.00, -61703.60, 0.00, 0.00, 0.00
98, 15864.13, -10379.61, -39054.73, -42090.46, 0.00, 0.00, 0.00, -61809.72, 0.00, -0.03, -0.03
99, 15870.16, -10368.39, -39067.92, -42090.43, 0.00, 0.00, 0.00, -61927.65, 0.00, -0.03, 0.00
100, 15866.38, -10378.56, -39053.08, -42090.43, 0.00, 0.00, 0.00, -61841.24, -0.03, -0.03, -0.03
101, 15868.08, -10385.58, -39027.31, -42084.89, 0.00, 0.00, 0.00, -61700.56, -0.03, -0.03, -0.03
102, 15877.07, -10369.51, -39029.32, -42076.06, 0.00, 0.00, 0.00, -61754.96, -0.03, -0.03, -0.03
103, 15859.17, -10373.78, -39073.33, -42099.75, 0.00, 0.00, 0.00, -61922.36, -0.03, -0.03, -0.03
104, 15865.02, -10371.75, -39060.39, -42096.92, 0.00, 0.00, 0.00, -61872.62, -0.03, 0.00, -0.03
105, 15870.16, -10374.05, -39026.37, -42084.06, 0.00, 0.00, 0.00, -61711.80, 0.00, -0.03, 0.00
106, 15868.26, -10369.89, -39029.03, -42079.37, 0.00, 0.00, 0.00, -61737.93, -0.03, -0.03, -0.03
107, 15849.35, -10377.74, -39071.34, -42100.18, 0.00, 0.00, 0.00, -61914.42, 0.00, 0.00, -0.03
108, 15855.46, -10374.85, -39065.06, -42094.39, 0.00, 0.00, 0.00, -61903.13, -0.03, -0.03, 0.00
109, 15868.87, -10372.24, -39028.04, -42074.83, 0.00, 0.00, 0.00, -61733.86, -0.03, 0.00, 0.00
110, 15870.63, -10368.77, -39020.80, -42069.49, 0.00, 0.00, 0.00, -61718.28, -0.03, -0.03, 0.00
111, 15856.15, -10370.87, -39057.68, -42089.03, 0.00, 0.00, 0.00, -61889.07, -0.03, -0.03, 0.00
112, 15854.38, -10374.20, -39062.00, -42091.89, 0.00, 0.00, 0.00, -61921.55, -0.03, -0.03, -0.03
113, 15859.41, -10380.64, -39028.92, -42080.49, 0.00, 0.00, 0.00, -61762.72, 0.00, 0.00, 0.00
114, 15859.14, -10380.06, -39025.07, -42078.48, 0.00, 0.00, 0.00, -61714.33, -0.03, -0.03, -0.03
115, 15861.78, -10365.49, -39059.14, -42087.08, 0.00, 0.00, 0.00, -61865.20, 0.00, 0.00, -0.03
116, 15853.49, -10367.43, -39084.95, -42102.26, 0.00, 0.00, 0.00, -61944.41, -0.03, 0.00, 0.00
117, 15857.58, -10375.10, -39054.38, -42085.65, 0.00, 0.00, 0.00, -61798.64, 0.00, 0.00, -0.03
118, 15864.22, -10373.69, -39031.20, -42075.70, 0.00, 0.00, 0.00, -61701.43, 0.00, -0.03, -0.03
119, 15861.11, -10369.00, -39061.89, -42090.59, 0.00, 0.00, 0.00, -61834.96, 0.00, 0.00, -0.03
120, 15857.56, -10368.44, -39088.33, -42101.05, 0.00, 0.00, 0.00, -61948.80, -0.03, 0.00, -0.03
121, 15861.11, -10375.30, -39070.13, -42096.87, 0.00, 0.00, 0.00, -61839.72, 0.00, -0.03, 0.00
122, 15878.77, -10367.88, -39036.63, -42078.52, 0.00, 0.00, 0.00, -61703.04, -0.03, 0.00, 0.00
123, 15872.69, -10364.68, -39062.38, -42086.07, 0.00, 0.00, 0.00, -61805.34, 0.00, -0.03, -0.03
124, 15864.55, -10363.54, -39093.20, -42092.96, 0.00, 0.00, 0.00, -61941.98, 0.00, -0.03, -0.03
125, 15875.75, -10361.71, -39064.97, -42071.84, 0.00, 0.00, 0.00, -61846.52, -0.03, -0.03, -0.03
126, 15882.21, -10363.14, -39026.86, -42056.91, 0.00, 0.00, 0.00, -61692.31, 0.00, -0.03, -0.03
127, 15879.55, -10358.83, -39038.10, -42064.95, 0.00, 0.00, 0.00, -61756.71, -0.03, -0.03, 0.00
128, 15878.95, -10352.90, -39072.14, -42082.54, 0.00, 0.00, 0.00, -61918.22, 0.00, -0.03, -0.03
129, 15884.58, -10353.46, -39057.91, -42076.64, 0.00, 0.00, 0.00, -61873.74, -0.03, 0.00, -0.03
130, 15890.39, -10357.73, -39019.24, -42062.94, 0.00, 0.00, 0.00, -61711.44, 0.00, 0.00, -0.03
131, 15875.50, -10368.17, -39032.27, -42078.90, 0.00, 0.00, 0.00, -61736.34, 0.00, -0.03, -0.03
132, 15872.22, -10357.31, -39067.45, -42088.54, 0.00, 0.00, 0.00, -61900.81, 0.00, -0.03, -0.03
133, 15880.89, -10352.01, -39061.73, -42080.15, 0.00, 0.00, 0.00, -61894.48, 0.00, -0.03, -0.03
134, 15888.20, -10354.94, -39023.37, -42063.05, 0.00, 0.00, 0.00, -61723.60, -0.03, -0.03, -0.03
135, 15885.63, -10352.03, -39016.31, -42062.11, 0.00, 0.00, 0.00, -61697.00, -0.03, -0.03, -0.03
136, 15874.16, -10356.70, -39063.56, -42090.88, 0.00, 0.00, 0.00, -61876.38, 0.00, 0.00, -0.03
137, 15868.51, -10365.44, -39080.62, -42102.75, 0.00, 0.00, 0.00, -61934.91, 0.00, 0.00, -0.03
138, 15871.15, -10373.56, -39049.68, -42091.38, 0.00, 0.00, 0.00, -61783.15, -0.03, 0.00, -0.03
139, 15876.31, -10369.58, -39027.51, -42078.41, 0.00, 0.00, 0.00, -61709.34, -0.03, -0.03, 0.00
140, 15869.16, -10365.38, -39053.46, -42086.03, 0.00, 0.00, 0.00, -61851.05, 0.00, -0.03, -0.03
141, 15863.30, -10366.76, -39072.12, -42096.29, 0.00, 0.00, 0.00, -61933.95, -0.03, -0.03, -0.03
142, 15858.56, -10384.04, -39057.50, -42099.62, 0.00, 0.00, 0.00, -61810.44, 0.00, 0.00, 0.00
143, 15876.38, -10369.42, -39027.17, -42080.84, 0.00, 0.00, 0.00, -61698.88, 0.00, -0.03, -0.03
144, 15869.38, -10363.25, -39057.13, -42093.23, 0.00, 0.00, 0.00, -61824.63, -0.03, -0.03, -0.03
145, 15863.39, -10363.12, -39085.00, -42104.58, 0.00, 0.00, 0.00, -61946.61, -0.03, -0.03, 0.00
146, 15866.45, -10371.19, -39064.79, -42098.32, 0.00, 0.00, 0.00, -61840.37, 0.00, 0.00, -0.03
147, 15874.97, -10364.62, -39036.23, -42085.74, 0.00, 0.00, 0.00, -61707.00, 0.00, -0.03, -0.03
148, 15867.73, -10360.95, -39062.36, -42094.57, 0.00, 0.00, 0.00, -61802.53, -0.03, 0.00, 0.00
149, 15854.79, -10365.44, -39097.60, -42107.45, 0.00, 0.00, 0.00, -61953.27, -0.03, -0.03, -0.03
150, 15855.70, -10371.21, -39078.47, -42102.17, 0.00, 0.00, 0.00, -61877.61, -0.03, -0.03, 0.00
151, 15870.32, -10363.10, -39038.26, -42079.71, 0.00, 0.00, 0.00, -61718.77, -0.03, -0.03, -0.03
152, 15868.58, -10361.17, -39051.65, -42081.52, 0.00, 0.00, 0.00, -61767.61, 0.00, -0.03, -0.03
153, 15863.05, -10356.64, -39085.04, -42085.76, 0.00, 0.00, 0.00, -61924.81, 0.00, -0.03, 0.00
154, 15869.94, -10353.44, -39066.31, -42070.81, 0.00, 0.00, 0.00, -61880.96, -0.03, -0.03, 0.00
155, 15883.31, -10353.06, -39024.51, -42053.40, 0.00, 0.00, 0.00, -61705.25, 0.00, 0.00, -0.03
156, 15883.24, -10350.00, -39028.78, -42059.37, 0.00, 0.00, 0.00, -61721.03, 0.00, -0.03, -0.03
157, 15863.81, -10358.11, -39072.99, -42085.27, 0.00, 0.00, 0.00, -61900.76, 0.00, -0.03, -0.03
158, 15862.76, -10361.13, -39073.46, -42087.13, 0.00, 0.00, 0.00, -61916.12, -0.03, 0.00, -0.03
159, 15869.02, -10367.50, -39031.11, -42068.75, 0.00, 0.00, 0.00, -61744.81, -0.03, -0.03, 0.00
160, 15870.36, -10369.93, -39026.30, -42071.55, 0.00, 0.00, 0.00, -61715.71, -0.03, 0.00, -0.03
161, 15855.83, -10373.15, -39073.35, -42098.04, 0.00, 0.00, 0.00, -61888.78, -0.03, -0.03, -0.03
162, 15853.18, -10371.61, -39084.66, -42100.56, 0.00, 0.00, 0.00, -61943.90, 0.00, 0.00, 0.00
163, 15865.56, -10370.56, -39048.41, -42080.60, 0.00, 0.00, 0.00, -61784.04, -0.03, 0.00, -0.03
164, 15868.71, -10369.91, -39031.38, -42073.31, 0.00, 0.00, 0.00, -61704.27, 0.00, -0.03, -0.03
165, 15865.07, -10362.36, -39056.92, -42080.71, 0.00, 0.00, 0.00, -61842.27, -0.03, 0.00, -0.03
166, 15861.42, -10360.39, -39076.97, -42087.91, 0.00, 0.00, 0.00, -61938.11, -0.03, 0.00, 0.00
167, 15863.79, -10365.44, -39056.74, -42078.41, 0.00, 0.00, 0.00, -61817.88, 0.00, -0.03, 0.00
168, 15869.47, -10364.82, -39032.78, -42071.21, 0.00, 0.00, 0.00, -61708.18, 0.00, 0.00, -0.03
169, 15863.68, -10362.42, -39058.31, -42086.05, 0.00, 0.00, 0.00, -61826.84, -0.03, 0.00, -0.03
170, 15859.41, -10357.78, -39083.05, -42098.59, 0.00, 0.00, 0.00, -61949.33, -0.03, -0.03, -0.03
171, 15869.76, -10356.28, -39060.79, -42093.00, 0.00, 0.00, 0.00, -61847.03, 0.00, -0.03, -0.03
172, 15878.10, -10357.04, -39030.26, -42083.26, 0.00, 0.00, 0.00, -61705.63, -0.03, -0.03, 0.00
173, 15873.38, -10353.95, -39047.87, -42089.09, 0.00, 0.00, 0.00, -61787.46, 0.00, -0.03, 0.00
174, 15871.50, -10353.55, -39084.32, -42103.91, 0.00, 0.00, 0.00, -61940.57, -0.03, -0.03, -0.03
175, 15876.96, -10352.01, -39068.14, -42094.05, 0.00, 0.00, 0.00, -61876.64, 0.00, -0.03, 0.00
176, 15885.23, -10351.18, -39031.84, -42076.20, 0.00, 0.00, 0.00, -61715.22, -0.03, -0.03, -0.03
177, 15889.36, -10342.06, -39037.30, -42072.53, 0.00, 0.00, 0.00, -61744.61, 0.00, -0.03, 0.00
178, 15880.22, -10341.64, -39072.86, -42081.61, 0.00, 0.00, 0.00, -61905.12, -0.03, 0.00, -0.03
179, 15862.94, -10365.08, -39091.97, -42098.68, 0.00, 0.00, 0.00, -61908.88, 0.00, -0.03, -0.03
180, 15877.18, -10360.06, -39048.09, -42075.19, 0.00, 0.00, 0.00, -61739.29, -0.03, -0.03, -0.03
181, 15874.63, -10356.50, -39043.55, -42072.60, 0.00, 0.00, 0.00, -61732.10, -0.03, 0.00, -0.03
182, 15866.68, -10354.94, -39078.74, -42089.41, 0.00, 0.00, 0.00, -61898.93, -0.03, 0.00, -0.03
183, 15872.29, -10351.50, -39081.22, -42092.07, 0.00, 0.00, 0.00, -61925.37, 0.00, -0.03, -0.03
184, 15880.40, -10358.76, -39048.77, -42082.41, 0.00, 0.00, 0.00, -61766.96, -0.03, -0.03, -0.03
185, 15873.11, -10366.25, -39046.84, -42084.51, 0.00, 0.00, 0.00, -61727.00, 0.00, -0.03, -0.03
186, 15869.76, -10354.94, -39077.29, -42095.64, 0.00, 0.00, 0.00, -61882.50, 0.00, -0.03, 0.00
187, 15874.68, -10346.76, -39087.48, -42096.96, 0.00, 0.00, 0.00, -61942.65, 0.00, -0.03, 0.00
188, 15886.01, -10346.04, -39053.04, -42078.30, 0.00, 0.00, 0.00, -61789.36, 0.00, -0.03, -0.03
189, 15890.48, -10350.80, -39039.96, -42074.25, 0.00, 0.00, 0.00, -61705.16, -0.03, -0.03, -0.03
190, 15880.94, -10349.42, -39071.54, -42091.17, 0.00, 0.00, 0.00, -61845.89, 0.00, -0.03, 0.00
191, 15869.80, -10355.21, -39094.94, -42108.65, 0.00, 0.00, 0.00, -61959.48, -0.03, -0.03, -0.03
192, 15872.40, -10361.06, -39067.11, -42096.87, 0.00, 0.00, 0.00, -61838.65, 0.00, -0.03, -0.03
193, 15885.16, -10354.09, -39030.50, -42074.79, 0.00, 0.00, 0.00, -61705.43, -0.03, -0.03, -0.03
194, 15876.35, -10354.04, -39056.27, -42088.87, 0.00, 0.00, 0.00, -61817.17, -0.03, -0.03, -0.03
195, 15869.09, -10350.13, -39085.46, -42099.75, 0.00, 0.00, 0.00, -61953.49, -0.03, -0.03, -0.03
196, 15870.41, -10355.05, -39065.55, -42092.11, 0.00, 0.00, 0.00, -61861.96, 0.00, -0.03, -0.03
197, 15877.92, -10360.86, -39036.14, -42080.42, 0.00, 0.00, 0.00, -61715.42, -0.03, -0.03, -0.03
198, 15872.11, -10360.10, -39051.76, -42086.03, 0.00, 0.00, 0.00, -61783.97, 0.00, -0.03, 0.00
199, 15867.48, -10350.49, -39082.61, -42097.16, 0.00, 0.00, 0.00, -61934.40, -0.03, -0.03, 0.00
200, 15872.67, -10350.02, -39064.97, -42085.32, 0.00, 0.00, 0.00, -61875.30, 0.00, 0.00, -0.03
201, 15883.89, -10346.91, -39026.70, -42063.46, 0.00, 0.00, 0.00, -61711.22, -0.03, 0.00, 0.00
202, 15883.91, -10342.78, -39042.44, -42067.61, 0.00, 0.00, 0.00, -61749.29, -0.03, -0.03, -0.03
203, 15879.19, -10338.62, -39082.92, -42081.38, 0.00, 0.00, 0.00, -61921.17, 0.00, -0.03, -0.03
204, 15874.28, -10344.25, -39085.45, -42083.48, 0.00, 0.00, 0.00, -61921.10, 0.00, -0.03, 0.00
205, 15881.00, -10345.21, -39044.09, -42062.50, 0.00, 0.00, 0.00, -61748.75, -0.03, -0.03, -0.03
206, 15884.20, -10340.03, -39036.09, -42056.39, 0.00, 0.00, 0.00, -61728.88, -0.03, 0.00, -0.03
207, 15879.77, -10332.85, -39069.26, -42066.09, 0.00, 0.00, 0.00, -61888.56, -0.03, 0.00, -0.03
208, 15860.71, -10349.86, -39093.63, -42086.52, 0.00, 0.00, 0.00, -61938.52, -0.03, -0.03, 0.00
209, 15873.67, -10348.68, -39052.74, -42070.83, 0.00, 0.00, 0.00, -61776.29, 0.00, -0.03, -0.03
210, 15882.39, -10342.69, -39032.63, -42064.06, 0.00, 0.00, 0.00, -61712.54, -0.03, -0.03, 0.00
211, 15871.71, -10341.08, -39071.77, -42086.59, 0.00, 0.00, 0.00, -61870.01, -0.03, 0.00, -0.03
212, 15865.80, -10345.28, -39094.70, -42099.26, 0.00, 0.00, 0.00, -61951.50, -0.03, -0.03, -0.03
213, 15884.51, -10338.80, -39049.14, -42073.31, 0.00, 0.00, 0.00, -61798.26, -0.03, 0.00, 0.00
214, 15885.29, -10346.42, -39032.05, -42071.28, 0.00, 0.00, 0.00, -61706.70, 0.00, -0.03, -0.03
215, 15883.66, -10341.95, -39063.52, -42085.92, 0.00, 0.00, 0.00, -61840.26, -0.03, -0.03, 0.00
216, 15878.50, -10338.42, -39090.32, -42095.64, 0.00, 0.00, 0.00, -61950.32, -0.03, 0.00, -0.03
217, 15887.71, -10342.06, -39060.88, -42078.41, 0.00, 0.00, 0.00, -61832.28, 0.00, 0.00, -0.03
218, 15880.82, -10354.92, -39046.91, -42077.18, 0.00, 0.00, 0.00, -61715.02, -0.03, 0.00, -0.03
219, 15871.15, -10353.64, -39071.16, -42089.88, 0.00, 0.00, 0.00, -61820.41, -0.03, -0.03, -0.03
220, 15858.58, -10354.22, -39102.36, -42104.83, 0.00, 0.00, 0.00, -61965.02, -0.03, 0.00, -0.03
221, 15870.77, -10353.73, -39076.59, -42089.65, 0.00, 0.00, 0.00, -61875.21, -0.03, 0.00, -0.03
222, 15885.81, -10353.69, -39032.83, -42068.55, 0.00, 0.00, 0.00, -61710.64, 0.00, -0.03, -0.03
223, 15881.88, -10352.90, -39043.33, -42074.00, 0.00, 0.00, 0.00, -61770.38, -0.03, 0.00, 0.00
224, 15870.14, -10354.53, -39081.02, -42090.75, 0.00, 0.00, 0.00, -61929.17, 0.00, 0.00, -0.03
225, 15876.85, -10352.12, -39068.93, -42081.67, 0.00, 0.00, 0.00, -61882.30, -0.03, -0.03, 0.00
226, 15888.49, -10346.35, -39031.26, -42059.88, 0.00, 0.00, 0.00, -61717.34, -0.03, -0.03, -0.03
227, 15882.12, -10345.21, -39042.91, -42063.99, 0.00, 0.00, 0.00, -61742.27, 0.00, -0.03, -0.03
228, 15872.87, -10338.44, -39083.14, -42079.59, 0.00, 0.00, 0.00, -61914.60, -0.03, 0.00, -0.03
229, 15870.90, -10345.42, -39091.52, -42089.14, 0.00, 0.00, 0.00, -61925.02, 0.00, -0.03, 0.00
230, 15876.06, -10355.16, -39059.38, -42081.18, 0.00, 0.00, 0.00, -61767.97, -0.03, 0.00, -0.03
231, 15875.64, -10353.98, -39049.88, -42077.83, 0.00, 0.00, 0.00, -61743.27, 0.00, -0.03, 0.00
232, 15869.38, -10348.68, -39082.47, -42091.24, 0.00, 0.00, 0.00, -61901.16, 0.00, 0.00, 0.00
233, 15863.88, -10355.94, -39097.87, -42106.68, 0.00, 0.00, 0.00, -61950.34, -0.03, 0.00, -0.03
234, 15884.27, -10348.01, -39048.70, -42081.85, 0.00, 0.00, 0.00, -61779.95, -0.03, 0.00, -0.03
235, 15877.36, -10354.24, -39037.28, -42082.63, 0.00, 0.00, 0.00, -61714.21, -0.03, -0.03, -0.03
236, 15879.15, -10337.95, -39064.95, -42087.02, 0.00, 0.00, 0.00, -61857.04, 0.00, -0.03, -0.03
237, 15872.82, -10339.56, -39089.82, -42095.66, 0.00, 0.00, 0.00, -61946.34, -0.03, 0.00, -0.03
238, 15881.12, -10339.02, -39062.22, -42077.85, 0.00, 0.00, 0.00, -61812.45, -0.03, 0.00, -0.03
239, 15882.41, -10341.55, -39044.45, -42066.12, 0.00, 0.00, 0.00, -61712.54, -0.03, -0.03, 0.00
240, 15867.91, -10346.06, -39083.01, -42084.80, 0.00, 0.00, 0.00, -61850.16, -0.03, -0.03, 0.00
241, 15859.97, -10348.77, -39113.96, -42099.09, 0.00, 0.00, 0.00, -61977.21, -0.03, -0.03, 0.00
242, 15870.57, -10346.00, -39083.77, -42084.85, 0.00, 0.00, 0.00, -61864.66, -0.03, -0.03, 0.00
243, 15875.97, -10347.90, -39051.60, -42072.66, 0.00, 0.00, 0.00, -61726.82, 0.00, -0.03, -0.03
244, 15875.19, -10345.64, -39070.18, -42080.20, 0.00, 0.00, 0.00, -61813.99, -0.03, -0.03, -0.03
245, 15868.93, -10343.76, -39101.78, -42096.13, 0.00, 0.00, 0.00, -61957.38, -0.03, -0.03, 0.00
246, 15872.51, -10344.19, -39086.29, -42092.51, 0.00, 0.00, 0.00, -61887.55, -0.03, -0.03, -0.03
247, 15864.71, -10357.62, -39063.65, -42092.96, 0.00, 0.00, 0.00, -61742.69, 0.00, -0.03, -0.03
248, 15875.13, -10337.21, -39060.10, -42081.65, 0.00, 0.00, 0.00, -61781.18, -0.03, -0.03, -0.03
249, 15878.81, -10327.00, -39089.20, -42089.59, 0.00, 0.00, 0.00, -61936.86, -0.03, 0.00, 0.00
250, 15880.67, -10330.84, -39086.14, -42089.23, 0.00, 0.00, 0.00, -61909.30, 0.00, -0.03, 0.00
251, 15879.62, -10342.20, -39058.31, -42079.39, 0.00, 0.00, 0.00, -61751.65, -0.03, -0.03, 0.00
252, 15873.58, -10346.02, -39063.27, -42084.80, 0.00, 0.00, 0.00, -61763.07, -0.03, 0.00, 0.00
253, 15853.00, -10355.29, -39108.71, -42111.45, 0.00, 0.00, 0.00, -61939.25, -0.03, 0.00, -0.03
254, 15864.62, -10347.05, -39098.70, -42101.01, 0.00, 0.00, 0.00, -61938.83, 0.00, -0.03, -0.03
255, 15877.18, -10345.44, -39056.36, -42080.33, 0.00, 0.00, 0.00, -61769.87, -0.03, -0.03, -0.03
0, 15876.91, -10346.47, -39052.77, -42078.32, 0.00, 0.00, 0.00, -61731.87, -0.03, -0.03, -0.03
1, 15871.35, -10340.90, -39092.06, -42093.12, 0.00, 0.00, 0.00, -61892.22, 0.00, -0.03, 0.00
2, 15874.41, -10338.78, -39099.70, -42095.20, 0.00, 0.00, 0.00, -61942.14, 0.00, -0.03, -0.03
3, 15880.29, -10341.12, -39063.47, -42081.09, 0.00, 0.00, 0.00, -61787.39, 0.00, -0.03, 0.00
4, 15889.38, -10335.60, -39038.80, -42068.02, 0.00, 0.00, 0.00, -61706.48, -0.03, 0.00, 0.00
5, 15878.92, -10335.60, -39075.36, -42086.48, 0.00, 0.00, 0.00, -61856.26, 0.00, 0.00, 0.00
6, 15866.97, -10341.39, -39097.85, -42094.68, 0.00, 0.00, 0.00, -61954.43, -0.03, 0.00, -0.03
7, 15868.17, -10351.56, -39068.21, -42078.81, 0.00, 0.00, 0.00, -61824.70, -0.03, -0.03, -0.03
8, 15875.15, -10351.23, -39040.85, -42061.33, 0.00, 0.00, 0.00, -61712.65, -0.03, -0.03, 0.00
9, 15870.95, -10346.44, -39065.55, -42072.02, 0.00, 0.00, 0.00, -61828.34, 0.00, 0.00, -0.03
10, 15868.11, -10347.54, -39095.59, -42087.57, 0.00, 0.00, 0.00, -61956.95, 0.00, 0.00, 0.00
11, 15865.13, -10359.72, -39079.72, -42088.69, 0.00, 0.00, 0.00, -61861.40, -0.03, -0.03, 0.00
12, 15863.23, -10369.02, -39058.75, -42089.12, 0.00, 0.00, 0.00, -61731.40, -0.03, -0.03, 0.00
13, 15859.48, -10362.69, -39079.16, -42103.11, 0.00, 0.00, 0.00, -61817.66, 0.00, -0.03, -0.03
14, 15864.69, -10345.84, -39096.57, -42105.70, 0.00, 0.00, 0.00, -61951.48, -0.03, -0.03, -0.03
15, 15866.18, -10349.73, -39081.33, -42100.09, 0.00, 0.00, 0.00, -61884.80, -0.03, 0.00, -0.03
16, 15876.87, -10347.85, -39043.69, -42078.21, 0.00, 0.00, 0.00, -61722.33, -0.03, -0.03, 0.00
17, 15876.22, -10343.76, -39054.15, -42080.20, 0.00, 0.00, 0.00, -61764.44, -0.03, -0.03, 0.00
18, 15855.21, -10349.73, -39101.87, -42105.97, 0.00, 0.00, 0.00, -61939.27, -0.03, 0.00, 0.00
19, 15856.68, -10351.58, -39097.98, -42101.95, 0.00, 0.00, 0.00, -61918.53, -0.03, -0.03, -0.03
20, 15881.76, -10337.44, -39050.44, -42068.66, 0.00, 0.00, 0.00, -61742.04, -0.03, -0.03, -0.03
21, 15879.19, -10333.12, -39053.55, -42063.28, 0.00, 0.00, 0.00, -61739.18, -0.03, -0.03, 0.00
22, 15864.58, -10333.95, -39093.89, -42077.74, 0.00, 0.00, 0.00, -61907.87, -0.03, -0.03, 0.00
23, 15859.77, -10339.63, -39096.11, -42078.79, 0.00, 0.00, 0.00, -61933.02, -0.03, -0.03, -0.03
24, 15870.70, -10342.80, -39057.04, -42063.79, 0.00, 0.00, 0.00, -61766.20, 0.00, 0.00, -0.03
25, 15868.73, -10349.10, -39053.14, -42068.26, 0.00, 0.00, 0.00, -61724.18, 0.00, 0.00, -0.03
26, 15862.74, -10343.27, -39087.90, -42082.54, 0.00, 0.00, 0.00, -61885.56, 0.00, 0.00, -0.03
27, 15869.54, -10333.28, -39098.95, -42083.82, 0.00, 0.00, 0.00, -61949.18, -0.03, -0.03, -0.03
28, 15872.22, -10341.73, -39069.37, -42074.63, 0.00, 0.00, 0.00, -61807.55, -0.03, -0.03, 0.00
29, 15872.64, -10342.98, -39047.29, -42064.73, 0.00, 0.00, 0.00, -61719.22, 0.00, -0.03, -0.03
30, 15860.19, -10341.84, -39082.61, -42085.14, 0.00, 0.00, 0.00, -61858.74, -0.03, -0.03, 0.00
31, 15866.25, -10326.19, -39096.60, -42084.98, 0.00, 0.00, 0.00, -61959.68, 0.00, 0.00, -0.03
32, 15867.19, -10336.25, -39074.85, -42077.36, 0.00, 0.00, 0.00, -61840.08, 0.00, 0.00, -0.03
33, 15881.45, -10336.16, -39050.29, -42068.60, 0.00, 0.00, 0.00, -61721.79, 0.00, 0.00, -0.03
34, 15879.80, -10331.69, -39077.64, -42080.15, 0.00, 0.00, 0.00, -61827.23, -0.03, -0.03, -0.03
35, 15873.74, -10332.92, -39110.30, -42094.12, 0.00, 0.00, 0.00, -61960.22, -0.03, -0.03, -0.03
36, 15875.21, -10341.64, -39094.94, -42090.97, 0.00, 0.00, 0.00, -61876.27, -0.03, 0.00, -0.03
37, 15883.80, -10340.88, -39057.68, -42076.06, 0.00, 0.00, 0.00, -61728.00, -0.03, -0.03, -0.03
38, 15874.12, -10341.97, -39074.67, -42085.76, 0.00, 0.00, 0.00, -61801.52, 0.00, 0.00, -0.03
39, 15861.74, -10343.52, -39110.86, -42103.00, 0.00, 0.00, 0.00, -61961.18, -0.03, -0.03, 0.00
40, 15866.07, -10343.49, -39098.90, -42097.21, 0.00, 0.00, 0.00, -61911.22, -0.03, 0.00, -0.03
41, 15882.01, -10335.31, -39052.50, -42070.88, 0.00, 0.00, 0.00, -61737.30, -0.03, -0.03, 0.00
42, 15878.43, -10333.61, -39059.76, -42070.59, 0.00, 0.00, 0.00, -61768.64, -0.03, -0.03, -0.03
43, 15870.70, -10334.82, -39102.61, -42087.37, 0.00, 0.00, 0.00, -61938.74, 0.00, 0.00, 0.00
44, 15876.91, -10329.23, -39097.31, -42083.37, 0.00, 0.00, 0.00, -61930.07, -0.03, 0.00, -0.03
45, 15873.74, -10343.98, -39066.58, -42074.07, 0.00, 0.00, 0.00, -61770.65, -0.03, 0.00, 0.00
46, 15880.69, -10336.92, -39053.10, -42065.00, 0.00, 0.00, 0.00, -61749.11, 0.00, 0.00, 0.00
47, 15873.90, -10329.63, -39085.87, -42078.97, 0.00, 0.00, 0.00, -61910.24, -0.03, 0.00, 0.00
48, 15870.50, -10336.25, -39094.59, -42090.88, 0.00, 0.00, 0.00, -61948.35, -0.03, 0.00, -0.03
49, 15885.92, -10333.84, -39056.34, -42076.35, 0.00, 0.00, 0.00, -61786.79, -0.03, -0.03, 0.00
50, 15891.98, -10326.53, -39041.86, -42072.62, 0.00, 0.00, 0.00, -61724.95, -0.03, -0.03, -0.03
51, 15884.18, -10326.68, -39084.28, -42095.75, 0.00, 0.00, 0.00, -61884.54, -0.03, -0.03, -0.03
52, 15882.28, -10325.34, -39103.32, -42104.49, 0.00, 0.00, 0.00, -61962.66, -0.03, -0.03, 0.00
53, 15882.90, -10334.04, -39075.59, -42098.21, 0.00, 0.00, 0.00, -61827.58, 0.00, 0.00, 0.00
54, 15884.92, -10336.47, -39055.34, -42089.43, 0.00, 0.00, 0.00, -61729.21, -0.03, -0.03, -0.03
55, 15880.80, -10328.43, -39085.58, -42095.17, 0.00, 0.00, 0.00, -61858.83, 0.00, -0.03, -0.03
56, 15878.28, -10325.30, -39112.96, -42102.71, 0.00, 0.00, 0.00, -61975.68, -0.03, -0.03, -0.03
57, 15886.90, -10326.42, -39087.72, -42090.81, 0.00, 0.00, 0.00, -61860.02, 0.00, 0.00, 0.00
58, 15889.94, -10330.31, -39060.54, -42082.84, 0.00, 0.00, 0.00, -61734.91, -0.03, 0.00, -0.03
59, 15880.56, -10329.50, -39086.43, -42098.59, 0.00, 0.00, 0.00, -61840.26, -0.03, 0.00, -0.03
60, 15863.68, -10337.99, -39127.09, -42123.65, 0.00, 0.00, 0.00, -61994.37, -0.03, -0.03, 0.00
61, 15865.27, -10342.87, -39108.38, -42118.08, 0.00, 0.00, 0.00, -61912.72, -0.03, -0.03, -0.03
62, 15879.57, -10338.11, -39069.91, -42098.97, 0.00, 0.00, 0.00, -61754.71, -0.03, 0.00, 0.00
63, 15871.03, -10340.48, -39089.98, -42108.20, 0.00, 0.00, 0.00, -61825.41, -0.03, 0.00, 0.00
64, 15864.46, -10337.14, -39121.00, -42117.64, 0.00, 0.00, 0.00, -61979.86, 0.00, -0.03, -0.03
65, 15867.61, -10338.87, -39111.73, -42108.70, 0.00, 0.00, 0.00, -61939.52, -0.03, -0.03, 0.00
66, 15879.66, -10333.34, -39065.39, -42077.83, 0.00, 0.00, 0.00, -61764.71, -0.03, 0.00, -0.03
67, 15873.16, -10334.93, -39071.59, -42079.15, 0.00, 0.00, 0.00, -61779.13, 0.00, -0.03, 0.00
68, 15868.04, -10331.15, -39107.17, -42095.87, 0.00, 0.00, 0.00, -61944.53, -0.03, 0.00, -0.03
69, 15872.22, -10330.66, -39107.48, -42095.51, 0.00, 0.00, 0.00, -61943.43, -0.03, -0.03, -0.03
70, 15886.46, -10323.96, -39067.09, -42073.78, 0.00, 0.00, 0.00, -61774.57, 0.00, -0.03, -0.03
71, 15879.97, -10328.76, -39067.41, -42079.21, 0.00, 0.00, 0.00, -61751.05, 0.00, 0.00, -0.03
72, 15869.22, -10329.63, -39110.59, -42099.87, 0.00, 0.00, 0.00, -61921.59, -0.03, 0.00, -0.03
73, 15869.67, -10327.82, -39118.41, -42099.98, 0.00, 0.00, 0.00, -61962.23, -0.03, -0.03, -0.03
74, 15879.21, -10330.01, -39078.36, -42081.32, 0.00, 0.00, 0.00, -61794.84, -0.03, -0.03, -0.03
75, 15876.69, -10333.64, -39066.54, -42081.09, 0.00, 0.00, 0.00, -61731.87, -0.03, -0.03, -0.03
76, 15875.21, -10328.83, -39101.40, -42097.45, 0.00, 0.00, 0.00, -61886.12, -0.03, -0.03, -0.03
77, 15868.24, -10331.42, -39124.80, -42111.07, 0.00, 0.00, 0.00, -61978.17, -0.03, -0.03, 0.00
78, 15871.33, -10338.17, -39093.91, -42098.97, 0.00, 0.00, 0.00, -61837.75, 0.00, -0.03, -0.03
79, 15874.25, -10338.73, -39068.23, -42085.07, 0.00, 0.00, 0.00, -61731.18, 0.00, 0.00, -0.03
80, 15873.54, -10328.20, -39092.02, -42087.24, 0.00, 0.00, 0.00, -61849.04, -0.03, -0.03, 0.00
81, 15869.13, -10326.48, -39122.12, -42098.88, 0.00, 0.00, 0.00, -61972.29, -0.03, -0.03, -0.03
82, 15870.21, -10330.89, -39099.32, -42085.52, 0.00, 0.00, 0.00, -61864.57, 0.00, -0.03, -0.03
83, 15871.73, -10336.32, -39071.50, -42072.13, 0.00, 0.00, 0.00, -61726.24, -0.03, 0.00, -0.03
84, 15870.07, -10332.47, -39094.16, -42085.25, 0.00, 0.00, 0.00, -61816.96, 0.00, -0.03, 0.00
85, 15858.54, -10338.26, -39134.30, -42112.07, 0.00, 0.00, 0.00, -61973.90, -0.03, -0.03, -0.03
86, 15868.55, -10336.14, -39112.07, -42101.68, 0.00, 0.00, 0.00, -61900.29, -0.03, -0.03, -0.03
87, 15878.41, -10334.02, -39074.13, -42085.20, 0.00, 0.00, 0.00, -61744.93, 0.00, -0.03, 0.00
88, 15882.77, -10323.73, -39074.91, -42086.46, 0.00, 0.00, 0.00, -61790.73, -0.03, -0.03, -0.03
89, 15879.89, -10318.82, -39105.83, -42097.36, 0.00, 0.00, 0.00, -61950.72, -0.03, 0.00, 0.00
90, 15866.14, -10336.85, -39109.34, -42105.81, 0.00, 0.00, 0.00, -61930.47, -0.03, -0.03, -0.03
91, 15865.16, -10347.63, -39075.00, -42092.89, 0.00, 0.00, 0.00, -61766.00, -0.03, 0.00, 0.00
92, 15864.31, -10342.00, -39076.12, -42091.08, 0.00, 0.00, 0.00, -61772.73, 0.00, -0.03, -0.03
93, 15860.55, -10333.19, -39111.28, -42102.82, 0.00, 0.00, 0.00, -61936.05, 0.00, -0.03, 0.00
94, 15865.04, -10328.23, -39110.99, -42096.98, 0.00, 0.00, 0.00, -61944.10, -0.03, -0.03, -0.03
95, 15871.44, -10331.89, -39073.44, -42078.99, 0.00, 0.00, 0.00, -61776.26, 0.00, -0.03, -0.03
96, 15870.14, -10335.02, -39069.02, -42082.23, 0.00, 0.00, 0.00, -61742.54, -0.03, -0.03, -0.03
97, 15866.18, -10326.55, -39098.12, -42091.93, 0.00, 0.00, 0.00, -61900.09, -0.03, -0.03, -0.03
98, 15867.03, -10323.47, -39103.21, -42087.11, 0.00, 0.00, 0.00, -61946.72, -0.03, 0.00, -0.03
99, 15872.76, -10332.07, -39071.56, -42076.80, 0.00, 0.00, 0.00, -61795.33, 0.00, -0.03, -0.03
100, 15872.60, -10337.82, -39057.95, -42073.49, 0.00, 0.00, 0.00, -61717.86, 0.00, 0.00, -0.03
101, 15859.99, -10337.97, -39096.46, -42088.80, 0.00, 0.00, 0.00, -61867.46, -0.03, 0.00, -0.03
102, 15862.94, -10328.65, -39114.59, -42089.70, 0.00, 0.00, 0.00, -61959.17, 0.00, -0.03, -0.03
103, 15869.83, -10335.71, -39089.38, -42076.13, 0.00, 0.00, 0.00, -61826.91, 0.00, -0.03, -0.03
104, 15870.65, -10336.54, -39068.03, -42062.56, 0.00, 0.00, 0.00, -61715.94, -0.03, 0.00, -0.03
105, 15890.91, -10303.77, -39068.25, -42045.17, 0.00, 0.00, 0.00, -61808.54, -0.03, -0.03, -0.03
106, 15871.50, -10317.95, -39111.73, -42073.27, 0.00, 0.00, 0.00, -61954.05, 0.00, -0.03, -0.03
107, 15870.39, -10328.36, -39095.75, -42078.01, 0.00, 0.00, 0.00, -61868.53, 0.00, 0.00, 0.00
108, 15881.36, -10323.73, -39057.48, -42066.07, 0.00, 0.00, 0.00, -61725.28, -0.03, -0.03, 0.00
109, 15884.02, -10314.35, -39067.68, -42073.94, 0.00, 0.00, 0.00, -61803.44, -0.03, 0.00, -0.03
110, 15869.54, -10323.04, -39108.93, -42103.13, 0.00, 0.00, 0.00, -61966.84, -0.03, -0.03, 0.00
111, 15871.84, -10325.95, -39089.73, -42098.70, 0.00, 0.00, 0.00, -61905.43, 0.00, 0.00, -0.03
112, 15875.95, -10335.98, -39058.35, -42088.87, 0.00, 0.00, 0.00, -61747.88, 0.00, 0.00, 0.00
113, 15877.81, -10328.61, -39062.29, -42082.43, 0.00, 0.00, 0.00, -61776.80, -0.03, -0.03, -0.03
114, 15868.02, -10329.77, -39105.58, -42098.70, 0.00, 0.00, 0.00, -61940.39, -0.03, 0.00, 0.00
115, 15863.90, -10336.36, -39106.86, -42099.53, 0.00, 0.00, 0.00, -61924.28, 0.00, -0.03, 0.00
116, 15874.97, -10341.86, -39068.88, -42083.21, 0.00, 0.00, 0.00, -61758.40, 0.00, -0.03, 0.00
117, 15872.40, -10342.87, -39069.24, -42083.84, 0.00, 0.00, 0.00, -61755.07, -0.03, -0.03, 0.00
118, 15871.15, -10332.07, -39098.50, -42092.16, 0.00, 0.00, 0.00, -61912.54, 0.00, -0.03, -0.03
119, 15860.75, -10340.88, -39110.05, -42097.36, 0.00, 0.00, 0.00, -61942.76, 0.00, -0.03, -0.03
120, 15856.62, -10357.84, -39081.44, -42091.17, 0.00, 0.00, 0.00, -61792.49, 0.00, -0.03, -0.03
121, 15858.88, -10355.72, -39065.17, -42080.11, 0.00, 0.00, 0.00, -61740.57, 0.00, -0.03, -0.03
122, 15860.08, -10345.33, -39092.44, -42085.20, 0.00, 0.00, 0.00, -61893.12, -0.03, 0.00, 0.00
123, 15849.42, -10353.35, -39113.59, -42093.83, 0.00, 0.00, 0.00, -61964.60, 0.00, -0.03, 0.00
124, 15851.37, -10358.51, -39085.69, -42078.75, 0.00, 0.00, 0.00, -61822.22, 0.00, -0.03, -0.03
125, 15858.74, -10353.13, -39060.88, -42061.29, 0.00, 0.00, 0.00, -61726.33, -0.03, -0.03, -0.03
126, 15855.79, -10345.82, -39086.74, -42066.79, 0.00, 0.00, 0.00, -61853.11, -0.03, -0.03, -0.03
127, 15850.60, -10347.83, -39109.49, -42077.09, 0.00, 0.00, 0.00, -61959.10, 0.00, -0.03, -0.03
128, 15866.81, -10339.96, -39073.80, -42060.26, 0.00, 0.00, 0.00, -61830.87, -0.03, -0.03, -0.03
129, 15870.74, -10341.19, -39048.30, -42052.39, 0.00, 0.00, 0.00, -61709.66, 0.00, -0.03, 0.00
130, 15860.24, -10343.63, -39077.66, -42068.57, 0.00, 0.00, 0.00, -61823.58, -0.03, -0.03, -0.03
131, 15864.51, -10336.68, -39102.54, -42078.07, 0.00, 0.00, 0.00, -61955.84, 0.00, -0.03, 0.00
132, 15872.26, -10331.51, -39076.75, -42070.12, 0.00, 0.00, 0.00, -61864.48, -0.03, 0.00, -0.03
133, 15873.27, -10337.48, -39050.26, -42064.84, 0.00, 0.00, 0.00, -61724.72, -0.03, 0.00, 0.00
134, 15868.80, -10336.50, -39065.84, -42073.36, 0.00, 0.00, 0.00, -61797.16, 0.00, -0.03, -0.03
135, 15862.61, -10331.36, -39098.25, -42086.46, 0.00, 0.00, 0.00, -61955.19, -0.03, 0.00, -0.03
136, 15866.14, -10331.56, -39083.32, -42080.06, 0.00, 0.00, 0.00, -61899.58, -0.03, 0.00, -0.03
137, 15865.11, -10343.05, -39059.92, -42074.61, 0.00, 0.00, 0.00, -61745.93, 0.00, -0.03, 0.00
138, 15876.13, -10324.74, -39055.78, -42060.04, 0.00, 0.00, 0.00, -61761.54, -0.03, -0.03, -0.03
139, 15866.23, -10321.86, -39094.07, -42072.73, 0.00, 0.00, 0.00, -61929.69, -0.03, -0.03, 0.00
140, 15857.42, -10332.63, -39099.73, -42080.64, 0.00, 0.00, 0.00, -61930.78, -0.03, -0.03, 0.00
141, 15871.24, -10328.58, -39055.45, -42058.20, 0.00, 0.00, 0.00, -61758.61, -0.03, -0.03, -0.03
142, 15873.74, -10323.62, -39047.42, -42054.76, 0.00, 0.00, 0.00, -61735.96, 0.00, -0.03, -0.03
143, 15868.82, -10323.00, -39082.79, -42071.28, 0.00, 0.00, 0.00, -61896.61, 0.00, 0.00, 0.00
144, 15872.98, -10319.71, -39085.80, -42069.69, 0.00, 0.00, 0.00, -61920.39, -0.03, -0.03, -0.03
145, 15876.02, -10325.41, -39054.93, -42061.78, 0.00, 0.00, 0.00, -61761.64, 0.00, 0.00, -0.03
146, 15874.97, -10325.25, -39051.58, -42060.37, 0.00, 0.00, 0.00, -61706.05, -0.03, 0.00, -0.03
147, 15876.00, -10312.49, -39082.36, -42066.47, 0.00, 0.00, 0.00, -61854.23, 0.00, -0.03, -0.03
148, 15872.02, -10318.03, -39103.13, -42080.33, 0.00, 0.00, 0.00, -61938.74, -0.03, 0.00, -0.03
149, 15883.19, -10320.63, -39067.38, -42063.84, 0.00, 0.00, 0.00, -61796.29, -0.03, -0.03, 0.00
150, 15885.07, -10325.54, -39048.38, -42055.61, 0.00, 0.00, 0.00, -61702.57, -0.03, 0.00, 0.00
151, 15870.68, -10328.23, -39086.54, -42070.88, 0.00, 0.00, 0.00, -61842.38, -0.03, -0.03, -0.03
152, 15858.41, -10334.71, -39119.48, -42085.36, 0.00, 0.00, 0.00, -61968.78, -0.03, -0.03, -0.03
153, 15861.67, -10341.06, -39092.86, -42072.38, 0.00, 0.00, 0.00, -61855.75, 0.00, -0.03, -0.03
154, 15868.13, -10340.70, -39061.39, -42061.49, 0.00, 0.00, 0.00, -61723.56, -0.03, -0.03, 0.00
155, 15875.62, -10326.59, -39074.49, -42070.39, 0.00, 0.00, 0.00, -61814.33, -0.03, -0.03, 0.00
156, 15855.25, -10340.10, -39119.29, -42103.71, 0.00, 0.00, 0.00, -61969.96, -0.03, -0.03, 0.00
157, 15852.79, -10353.24, -39108.80, -42106.77, 0.00, 0.00, 0.00, -61899.42, -0.03, -0.03, 0.00
158, 15865.29, -10349.17, -39064.07, -42085.99, 0.00, 0.00, 0.00, -61744.64, -0.03, 0.00, 0.00
159, 15860.86, -10349.55, -39078.98, -42096.98, 0.00, 0.00, 0.00, -61806.53, -0.03, -0.03, 0.00
160, 15862.54, -10339.60, -39106.54, -42107.04, 0.00, 0.00, 0.00, -61961.80, -0.03, -0.03, -0.03
161, 15866.45, -10341.37, -39094.77, -42108.25, 0.00, 0.00, 0.00, -61921.91, -0.03, 0.00, 0.00
162, 15873.58, -10341.39, -39052.45, -42088.94, 0.00, 0.00, 0.00, -61752.75, -0.03, -0.03, 0.00
163, 15865.22, -10346.96, -39060.48, -42094.03, 0.00, 0.00, 0.00, -61774.14, 0.00, -0.03, -0.03
164, 15848.91, -10350.11, -39098.54, -42110.64, 0.00, 0.00, 0.00, -61943.12, -0.03, -0.03, -0.03
165, 15843.68, -10356.34, -39097.02, -42115.20, 0.00, 0.00, 0.00, -61944.44, 0.00, 0.00, -0.03
166, 15854.63, -10358.94, -39056.05, -42100.76, 0.00, 0.00, 0.00, -61776.75, -0.03, 0.00, -0.03
167, 15862.12, -10350.69, -39047.85, -42095.20, 0.00, 0.00, 0.00, -61743.36, 0.00, -0.03, -0.03
168, 15846.11, -10352.25, -39098.79, -42119.00, 0.00, 0.00, 0.00, -61922.53, -0.03, -0.03, -0.03
169, 15845.42, -10348.50, -39111.28, -42116.23, 0.00, 0.00, 0.00, -61965.79, -0.03, 0.00, -0.03
170, 15855.28, -10352.30, -39088.53, -42104.76, 0.00, 0.00, 0.00, -61818.24, 0.00, -0.03, 0.00
171, 15857.42, -10349.64, -39080.04, -42097.59, 0.00, 0.00, 0.00, -61754.89, 0.00, -0.03, -0.03
172, 15852.64, -10342.55, -39108.76, -42100.96, 0.00, 0.00, 0.00, -61893.05, -0.03, -0.03, 0.00
173, 15842.98, -10349.93, -39137.97, -42111.96, 0.00, 0.00, 0.00, -61980.31, -0.03, 0.00, 0.00
174, 15850.52, -10350.78, -39104.00, -42093.88, 0.00, 0.00, 0.00, -61835.23, -0.03, 0.00, -0.03
175, 15860.93, -10347.40, -39073.02, -42074.79, 0.00, 0.00, 0.00, -61719.85, -0.03, -0.03, -0.03
176, 15861.11, -10340.16, -39095.93, -42082.63, 0.00, 0.00, 0.00, -61841.08, 0.00, -0.03, -0.03
177, 15864.93, -10330.51, -39113.65, -42085.32, 0.00, 0.00, 0.00, -61952.95, -0.03, 0.00, 0.00
178, 15869.00, -10333.39, -39084.86, -42076.31, 0.00, 0.00, 0.00, -61842.20, -0.03, -0.03, 0.00
179, 15868.15, -10339.72, -39059.70, -42077.56, 0.00, 0.00, 0.00, -61714.95, 0.00, -0.03, -0.03
180, 15870.63, -10331.13, -39072.99, -42084.29, 0.00, 0.00, 0.00, -61797.65, 0.00, -0.03, -0.03
181, 15848.79, -10343.54, -39116.22, -42116.03, 0.00, 0.00, 0.00, -61957.74, -0.03, -0.03, 0.00
182, 15854.67, -10350.29, -39102.07, -42114.75, 0.00, 0.00, 0.00, -61894.19, 0.00, 0.00, -0.03
183, 15864.96, -10349.55, -39061.97, -42099.04, 0.00, 0.00, 0.00, -61733.79, -0.03, -0.03, -0.03
184, 15861.74, -10346.20, -39069.13, -42105.05, 0.00, 0.00, 0.00, -61780.06, -0.03, -0.03, -0.03
185, 15856.24, -10342.11, -39100.78, -42115.42, 0.00, 0.00, 0.00, -61937.71, -0.03, 0.00, -0.03
186, 15854.02, -10347.29, -39098.65, -42111.63, 0.00, 0.00, 0.00, -61907.65, 0.00, -0.03, 0.00
187, 15857.98, -10352.08, -39066.18, -42097.25, 0.00, 0.00, 0.00, -61746.63, -0.03, -0.03, -0.03
188, 15850.16, -10355.88, -39069.30, -42099.46, 0.00, 0.00, 0.00, -61758.00, -0.03, -0.03, -0.03
189, 15843.79, -10351.67, -39100.51, -42110.11, 0.00, 0.00, 0.00, -61924.25, 0.00, -0.03, 0.00
190, 15851.16, -10346.11, -39094.68, -42097.88, 0.00, 0.00, 0.00, -61930.47, 0.00, -0.03, -0.03
191, 15856.19, -10351.70, -39061.86, -42078.19, 0.00, 0.00, 0.00, -61765.64, 0.00, 0.00, 0.00
192, 15853.60, -10350.82, -39055.05, -42067.52, 0.00, 0.00, 0.00, -61728.90, -0.03, -0.03, -0.03
193, 15840.37, -10350.69, -39095.37, -42078.66, 0.00, 0.00, 0.00, -61892.61, -0.03, 0.00, 0.00
194, 15852.04, -10340.50, -39102.36, -42073.60, 0.00, 0.00, 0.00, -61942.94, 0.00, 0.00, -0.03
195, 15849.64, -10354.33, -39081.71, -42075.64, 0.00, 0.00, 0.00, -61801.59, 0.00, -0.03, -0.03
196, 15847.81, -10357.37, -39070.65, -42080.62, 0.00, 0.00, 0.00, -61725.70, 0.00, 0.00, -0.03
197, 15847.48, -10348.54, -39102.39, -42096.29, 0.00, 0.00, 0.00, -61869.27, -0.03, 0.00, -0.03
198, 15846.92, -10347.65, -39123.64, -42104.67, 0.00, 0.00, 0.00, -61963.21, -0.03, -0.03, -0.03
199, 15856.35, -10350.15, -39096.66, -42094.82, 0.00, 0.00, 0.00, -61834.63, -0.03, -0.03, 0.00
200, 15872.33, -10338.78, -39062.51, -42077.70, 0.00, 0.00, 0.00, -61713.12, 0.00, -0.03, -0.03
201, 15856.91, -10345.64, -39093.89, -42101.72, 0.00, 0.00, 0.00, -61836.46, 0.00, 0.00, -0.03
202, 15854.72, -10343.81, -39119.73, -42113.61, 0.00, 0.00, 0.00, -61964.78, -0.03, -0.03, -0.03
203, 15860.04, -10346.22, -39100.48, -42107.54, 0.00, 0.00, 0.00, -61870.45, 0.00, -0.03, 0.00
204, 15849.53, -10364.86, -39086.29, -42113.52, 0.00, 0.00, 0.00, -61750.78, -0.03, 0.00, -0.03
205, 15845.67, -10362.96, -39103.19, -42122.24, 0.00, 0.00, 0.00, -61833.21, -0.03, -0.03, 0.00
206, 15835.14, -10362.92, -39133.99, -42133.55, 0.00, 0.00, 0.00, -61986.28, -0.03, -0.03, 0.00
207, 15828.57, -10377.92, -39123.53, -42133.15, 0.00, 0.00, 0.00, -61932.05, -0.03, -0.03, -0.03
208, 15838.24, -10377.31, -39076.26, -42107.69, 0.00, 0.00, 0.00, -61762.65, 0.00, -0.03, -0.03
209, 15839.50, -10369.29, -39079.12, -42104.74, 0.00, 0.00, 0.00, -61796.02, 0.00, 0.00, -0.03
210, 15836.68, -10356.99, -39107.55, -42109.61, 0.00, 0.00, 0.00, -61955.46, -0.03, -0.03, 0.00
211, 15834.18, -10362.96, -39103.73, -42104.18, 0.00, 0.00, 0.00, -61939.16, -0.03, 0.00, 0.00
212, 15853.29, -10357.49, -39057.75, -42078.95, 0.00, 0.00, 0.00, -61765.31, -0.03, -0.03, 0.00
213, 15851.07, -10354.80, -39060.48, -42084.18, 0.00, 0.00, 0.00, -61764.44, -0.03, -0.03, 0.00
214, 15841.17, -10352.12, -39100.44, -42104.25, 0.00, 0.00, 0.00, -61934.07, 0.00, 0.00, -0.03
215, 15848.86, -10347.29, -39101.94, -42097.30, 0.00, 0.00, 0.00, -61958.23, -0.03, 0.00, -0.03
216, 15860.66, -10349.17, -39063.74, -42077.63, 0.00, 0.00, 0.00, -61789.94, -0.03, -0.03, 0.00
217, 15866.41, -10344.36, -39053.28, -42074.30, 0.00, 0.00, 0.00, -61736.61, -0.03, -0.03, -0.03
218, 15855.52, -10340.05, -39095.57, -42097.16, 0.00, 0.00, 0.00, -61900.61, -0.03, -0.03, 0.00
219, 15848.86, -10344.07, -39114.86, -42108.79, 0.00, 0.00, 0.00, -61969.92, -0.03, 0.00, -0.03
220, 15864.55, -10341.71, -39077.69, -42085.00, 0.00, 0.00, 0.00, -61813.79, 0.00, 0.00, -0.03
221, 15861.04, -10346.42, -39064.72, -42079.08, 0.00, 0.00, 0.00, -61728.57, 0.00, -0.03, -0.03
222, 15836.21, -10358.22, -39110.90, -42106.04, 0.00, 0.00, 0.00, -61877.83, -0.03, -0.03, -0.03
223, 15836.57, -10352.59, -39131.22, -42113.73, 0.00, 0.00, 0.00, -61978.08, -0.03, -0.03, 0.00
224, 15851.68, -10348.88, -39093.51, -42096.63, 0.00, 0.00, 0.00, -61848.26, -0.03, -0.03, -0.03
225, 15852.37, -10354.58, -39067.81, -42090.14, 0.00, 0.00, 0.00, -61725.46, 0.00, -0.03, -0.03
226, 15849.80, -10345.37, -39090.88, -42098.68, 0.00, 0.00, 0.00, -61830.69, -0.03, -0.03, 0.00
227, 15842.83, -10341.57, -39122.88, -42111.67, 0.00, 0.00, 0.00, -61967.24, -0.03, -0.03, -0.03
228, 15845.96, -10347.43, -39104.04, -42100.34, 0.00, 0.00, 0.00, -61883.35, 0.00, -0.03, -0.03
229, 15851.21, -10350.94, -39071.07, -42081.05, 0.00, 0.00, 0.00, -61734.78, -0.03, -0.03, -0.03
