%OpenBCI Raw EEG Data
%
%Sample Rate = 250.0 Hz
%First Column = SampleIndex
%Other Columns = EEG data in microvolts followed by Accel Data (in G) interleaved with Aux Data
0, -120040.89, -128411.51, -113245.91, -135254.52, -187500.02, -187500.02, 187500.00, 187500.00, 0.01, 0.00, 0.02
1, -120044.64, -128413.80, -113254.72, -135202.05, -187500.02, -187500.02, 187500.00, 187500.00, 0.00, 0.00, 0.00
2, -120051.82, -128420.65, -113243.41, -135068.97, -187500.02, -187500.02, 187500.00, 187500.00, 0.00, 0.00, 0.00
3, -120055.41, -128425.59, -113227.32, -135039.80, -187500.02, -187500.02, 187500.00, 187500.00, 0.00, 0.00, 0.00
4, -120035.01, -128406.16, -113247.37, -135230.73, -187500.02, -187500.02, 187500.00, 187500.00, 0.00, 0.00, 0.00
5, -120023.66, -128394.43, -113250.43, -135211.22, -187500.02, -187500.02, 187500.00, 187500.00, 0.00, 0.00, 0.00
6, -120035.01, -128400.09, -113235.90, -135071.31, -187500.02, -187500.02, 187500.00, 187500.00, 0.00, 0.00, 0.00
7, -120043.02, -128402.14, -113214.64, -134997.25, -187500.02, -187500.02, 187500.00, 187500.00, 0.01, -0.01, 0.02
8, -120015.32, -128383.63, -113218.65, -135169.78, -187500.02, -187500.02, 187500.00, 187500.00, 0.00, 0.00, 0.00
9, -120018.16, -128389.78, -113240.33, -135203.73, -187500.02, -187500.02, 187500.00, 187500.00, 0.00, 0.00, 0.00
10, -120039.88, -128405.23, -113243.81, -135094.14, -187500.02, -187500.02, 187500.00, 187500.00, 0.00, 0.00, 0.00
11, -120050.16, -128414.19, -113229.93, -134995.72, -187500.02, -187500.02, 187500.00, 187500.00, 0.00, 0.00, 0.00
12, -120036.93, -128407.46, -113238.31, -135150.89, -187500.02, -187500.02, 187500.00, 187500.00, 0.00, 0.00, 0.00
13, -120028.28, -128401.54, -113255.15, -135227.98, -187500.02, -187500.02, 187500.00, 187500.00, 0.00, 0.00, 0.00
14, -120045.94, -128412.38, -113259.98, -135129.28, -187500.02, -187500.02, 187500.00, 187500.00, 0.00, 0.00, 0.00
15, -120064.63, -128433.09, -113255.66, -135024.41, -187500.02, -187500.02, 187500.00, 187500.00, 0.00, 0.00, 0.00
16, -120050.74, -128420.91, -113245.47, -135133.36, -187500.02, -187500.02, 187500.00, 187500.00, 0.00, 0.00, 0.00
17, -120040.84, -128416.27, -113269.36, -135261.84, -187500.02, -187500.02, 187500.00, 187500.00, 0.01, -0.01, 0.01
18, -120044.63, -128416.06, -113261.43, -135161.13, -187500.02, -187500.02, 187500.00, 187500.00, 0.00, 0.00, 0.00
19, -120046.72, -128413.47, -113230.40, -135015.08, -187500.02, -187500.02, 187500.00, 187500.00, 0.00, 0.00, 0.00
20, -120046.39, -128411.52, -113217.37, -135068.14, -187500.02, -187500.02, 187500.00, 187500.00, 0.00, 0.00, 0.00
21, -120033.42, -128404.15, -113248.02, -135237.19, -187500.02, -187500.02, 187500.00, 187500.00, 0.00, 0.00, 0.00
22, -120036.15, -128404.30, -113236.80, -135163.14, -187500.02, -187500.02, 187500.00, 187500.00, 0.00, 0.00, 0.00
23, -120039.37, -128403.59, -113210.02, -135020.78, -187500.02, -187500.02, 187500.00, 187500.00, 0.00, 0.00, 0.00
24, -120033.09, -128403.15, -113183.73, -135023.83, -187500.02, -187500.02, 187500.00, 187500.00, 0.00, 0.00, 0.00
25, -120025.45, -128396.73, -113210.04, -135217.48, -187500.02, -187500.02, 187500.00, 187500.00, 0.00, 0.00, 0.00
26, -120024.75, -128396.82, -113207.73, -135177.28, -187500.02, -187500.02, 187500.00, 187500.00, 0.00, 0.00, 0.00
27, -120037.09, -128403.08, -113184.65, -135045.50, -187500.02, -187500.02, 187500.00, 187500.00, 0.01, -0.01, 0.01
28, -120051.04, -128415.84, -113172.89, -135012.31, -187500.02, -187500.02, 187500.00, 187500.00, 0.00, 0.00, 0.00
29, -120024.44, -128398.48, -113183.35, -135200.27, -187500.02, -187500.02, 187500.00, 187500.00, 0.00, 0.00, 0.00
30, -120012.97, -128386.18, -113180.65, -135190.56, -187500.02, -187500.02, 187500.00, 187500.00, 0.00, 0.00, 0.00
31, -120038.45, -128405.67, -113179.66, -135070.78, -187500.02, -187500.02, 187500.00, 187500.00, 0.00, 0.00, 0.00
32, -120051.80, -128414.61, -113150.07, -134992.23, -187500.02, -187500.02, 187500.00, 187500.00, 0.00, 0.00, 0.00
33, -120028.13, -128395.03, -113149.60, -135158.38, -187500.02, -187500.02, 187500.00, 187500.00, 0.00, 0.00, 0.00
34, -120012.37, -128384.46, -113158.27, -135189.84, -187500.02, -187500.02, 187500.00, 187500.00, 0.00, 0.00, 0.00
35, -120031.08, -128397.31, -113155.48, -135079.00, -187500.02, -187500.02, 187500.00, 187500.00, 0.00, 0.00, 0.00
36, -120060.52, -128419.75, -113147.95, -134983.75, -187500.02, -187500.02, 187500.00, 187500.00, 0.00, 0.00, 0.00
37, -120044.20, -128412.49, -113149.16, -135123.08, -187500.02, -187500.02, 187500.00, 187500.00, 0.01, -0.01, 0.01
38, -120037.18, -128403.19, -113175.87, -135218.95, -187500.02, -187500.02, 187500.00, 187500.00, 0.00, 0.00, 0.00
39, -120055.82, -128414.03, -113172.55, -135118.61, -187500.02, -187500.02, 187500.00, 187500.00, 0.00, 0.00, 0.00
40, -120056.16, -128415.44, -113149.89, -134989.36, -187500.02, -187500.02, 187500.00, 187500.00, 0.00, 0.00, 0.00
41, -120047.62, -128413.49, -113155.66, -135089.80, -187500.02, -187500.02, 187500.00, 187500.00, 0.00, 0.00, 0.00
42, -120035.95, -128404.48, -113178.41, -135226.02, -187500.02, -187500.02, 187500.00, 187500.00, 0.00, 0.00, 0.00
43, -120045.56, -128413.54, -113188.49, -135142.64, -187500.02, -187500.02, 187500.00, 187500.00, 0.00, 0.00, 0.00
44, -120061.48, -128426.26, -113170.99, -135013.67, -187500.02, -187500.02, 187500.00, 187500.00, 0.00, 0.00, 0.00
45, -120047.68, -128414.48, -113152.17, -135048.39, -187500.02, -187500.02, 187500.00, 187500.00, 0.00, 0.00, 0.00
46, -120019.01, -128396.59, -113173.90, -135212.73, -187500.02, -187500.02, 187500.00, 187500.00, 0.00, 0.00, 0.00
47, -120037.23, -128405.38, -113195.73, -135158.61, -187500.02, -187500.02, 187500.00, 187500.00, 0.00, -0.00, 0.01
48, -120044.63, -128408.51, -113185.25, -135026.44, -187500.02, -187500.02, 187500.00, 187500.00, 0.00, 0.00, 0.00
49, -120046.92, -128413.47, -113177.41, -135027.11, -187500.02, -187500.02, 187500.00, 187500.00, 0.00, 0.00, 0.00
50, -120024.82, -128395.95, -113198.06, -135217.97, -187500.02, -187500.02, 187500.00, 187500.00, 0.00, 0.00, 0.00
51, -120010.06, -128373.30, -113184.23, -135166.22, -187500.02, -187500.02, 187500.00, 187500.00, 0.00, 0.00, 0.00
52, -120010.87, -128372.08, -113164.58, -135026.03, -187500.02, -187500.02, 187500.00, 187500.00, 0.00, 0.00, 0.00
53, -120012.37, -128370.76, -113143.48, -134980.53, -187500.02, -187500.02, 187500.00, 187500.00, 0.00, 0.00, 0.00
54, -119990.33, -128352.59, -113153.52, -135157.81, -187500.02, -187500.02, 187500.00, 187500.00, 0.00, 0.00, 0.00
55, -120001.10, -128363.38, -113180.65, -135180.31, -187500.02, -187500.02, 187500.00, 187500.00, 0.00, 0.00, 0.00
56, -120011.07, -128370.11, -113161.49, -135054.73, -187500.02, -187500.02, 187500.00, 187500.00, 0.00, 0.00, 0.00
57, -120028.23, -128384.34, -113143.95, -134974.36, -187500.02, -187500.02, 187500.00, 187500.00, 0.00, 0.00, 0.01
58, -120003.85, -128372.88, -113156.87, -135143.09, -187500.02, -187500.02, 187500.00, 187500.00, 0.00, 0.00, 0.00
59, -120001.69, -128366.65, -113172.66, -135204.95, -187500.02, -187500.02, 187500.00, 187500.00, 0.00, 0.00, 0.00
60, -120029.84, -128386.20, -113166.63, -135089.94, -187500.02, -187500.02, 187500.00, 187500.00, 0.00, 0.00, 0.00
61, -120045.98, -128399.05, -113149.24, -134977.84, -187500.02, -187500.02, 187500.00, 187500.00, 0.00, 0.00, 0.00
62, -120038.63, -128393.63, -113151.01, -135112.38, -187500.02, -187500.02, 187500.00, 187500.00, 0.00, 0.00, 0.00
63, -120019.97, -128381.71, -113166.79, -135217.19, -187500.02, -187500.02, 187500.00, 187500.00, 0.00, 0.00, 0.00
64, -120041.13, -128392.82, -113162.66, -135116.72, -187500.02, -187500.02, 187500.00, 187500.00, 0.00, 0.00, 0.00
65, -120061.81, -128404.45, -113150.83, -134997.17, -187500.02, -187500.02, 187500.00, 187500.00, 0.00, 0.00, 0.00
66, -120047.21, -128403.75, -113138.38, -135086.66, -187500.02, -187500.02, 187500.00, 187500.00, 0.00, 0.00, 0.00
67, -120021.87, -128387.70, -113148.30, -135223.06, -187500.02, -187500.02, 187500.00, 187500.00, 0.00, -0.00, 0.01
68, -120029.91, -128386.13, -113136.41, -135137.13, -187500.02, -187500.02, 187500.00, 187500.00, 0.00, 0.00, 0.00
69, -120045.43, -128400.35, -113117.30, -135008.88, -187500.02, -187500.02, 187500.00, 187500.00, 0.00, 0.00, 0.00
70, -120053.25, -128410.68, -113112.45, -135048.77, -187500.02, -187500.02, 187500.00, 187500.00, 0.00, 0.00, 0.00
71, -120041.42, -128402.19, -113146.25, -135235.88, -187500.02, -187500.02, 187500.00, 187500.00, 0.00, 0.00, 0.00
72, -120028.77, -128395.39, -113138.85, -135169.89, -187500.02, -187500.02, 187500.00, 187500.00, 0.00, 0.00, 0.00
73, -120040.84, -128396.51, -113114.27, -135036.73, -187500.02, -187500.02, 187500.00, 187500.00, 0.00, 0.00, 0.00
74, -120041.63, -128401.34, -113097.74, -135022.44, -187500.02, -187500.02, 187500.00, 187500.00, 0.00, 0.00, 0.00
75, -120028.39, -128394.02, -113129.80, -135220.56, -187500.02, -187500.02, 187500.00, 187500.00, 0.00, 0.00, 0.00
76, -120024.75, -128391.88, -113137.98, -135198.08, -187500.02, -187500.02, 187500.00, 187500.00, 0.00, 0.00, 0.00
77, -120058.23, -128417.45, -113135.34, -135077.44, -187500.02, -187500.02, 187500.00, 187500.00, 0.01, -0.00, 0.01
78, -120048.73, -128410.45, -113116.05, -135015.06, -187500.02, -187500.02, 187500.00, 187500.00, 0.00, 0.00, 0.00
79, -120016.30, -128384.55, -113127.67, -135189.16, -187500.02, -187500.02, 187500.00, 187500.00, 0.00, 0.00, 0.00
80, -120023.74, -128391.01, -113150.96, -135216.11, -187500.02, -187500.02, 187500.00, 187500.00, 0.00, 0.00, 0.00
81, -120031.32, -128390.23, -113139.68, -135080.39, -187500.02, -187500.02, 187500.00, 187500.00, 0.00, 0.00, 0.00
82, -120042.99, -128398.97, -113130.60, -134986.11, -187500.02, -187500.02, 187500.00, 187500.00, 0.00, 0.00, 0.00
83, -120018.52, -128381.80, -113126.29, -135135.31, -187500.02, -187500.02, 187500.00, 187500.00, 0.00, 0.00, 0.00
84, -120003.18, -128364.08, -113148.20, -135201.03, -187500.02, -187500.02, 187500.00, 187500.00, 0.00, 0.00, 0.00
85, -120011.74, -128372.03, -113145.53, -135083.66, -187500.02, -187500.02, 187500.00, 187500.00, 0.00, 0.00, 0.00
86, -120018.85, -128380.57, -113130.47, -134960.72, -187500.02, -187500.02, 187500.00, 187500.00, 0.00, 0.00, 0.00
87, -120017.53, -128382.98, -113153.76, -135095.86, -187500.02, -187500.02, 187500.00, 187500.00, 0.01, -0.00, 0.01
88, -119998.66, -128368.32, -113181.54, -135210.06, -187500.02, -187500.02, 187500.00, 187500.00, 0.00, 0.00, 0.00
89, -120014.16, -128373.09, -113184.98, -135102.03, -187500.02, -187500.02, 187500.00, 187500.00, 0.00, 0.00, 0.00
90, -120025.55, -128380.39, -113171.15, -134966.31, -187500.02, -187500.02, 187500.00, 187500.00, 0.00, 0.00, 0.00
91, -120017.89, -128378.00, -113176.60, -135043.33, -187500.02, -187500.02, 187500.00, 187500.00, 0.00, 0.00, 0.00
92, -120001.28, -128369.73, -113211.98, -135202.05, -187500.02, -187500.02, 187500.00, 187500.00, 0.00, 0.00, 0.00
93, -119995.49, -128363.88, -113212.16, -135118.95, -187500.02, -187500.02, 187500.00, 187500.00, 0.00, 0.00, 0.00
94, -120024.04, -128382.91, -113214.82, -134991.66, -187500.02, -187500.02, 187500.00, 187500.00, 0.00, 0.00, 0.00
95, -120019.52, -128383.88, -113211.34, -135015.06, -187500.02, -187500.02, 187500.00, 187500.00, 0.00, 0.00, 0.00
96, -119999.41, -128367.38, -113237.17, -135199.48, -187500.02, -187500.02, 187500.00, 187500.00, 0.00, 0.00, 0.00
97, -120002.09, -128364.63, -113250.12, -135149.64, -187500.02, -187500.02, 187500.00, 187500.00, 0.01, 0.00, 0.01
98, -120014.80, -128374.45, -113241.66, -135019.48, -187500.02, -187500.02, 187500.00, 187500.00, 0.00, 0.00, 0.00
99, -120024.33, -128381.02, -113232.91, -134998.36, -187500.02, -187500.02, 187500.00, 187500.00, 0.00, 0.00, 0.00
100, -120003.96, -128371.92, -113257.13, -135198.81, -187500.02, -187500.02, 187500.00, 187500.00, 0.00, 0.00, 0.00
101, -120002.40, -128371.07, -113260.76, -135179.02, -187500.02, -187500.02, 187500.00, 187500.00, 0.00, 0.00, 0.00
102, -120028.46, -128387.88, -113257.45, -135053.70, -187500.02, -187500.02, 187500.00, 187500.00, 0.00, 0.00, 0.00
103, -120037.78, -128398.27, -113237.06, -134989.47, -187500.02, -187500.02, 187500.00, 187500.00, 0.00, 0.00, 0.00
104, -120027.70, -128390.41, -113247.81, -135175.59, -187500.02, -187500.02, 187500.00, 187500.00, 0.00, 0.00, 0.00
105, -120017.82, -128386.92, -113267.04, -135213.50, -187500.02, -187500.02, 187500.00, 187500.00, 0.00, 0.00, 0.00
106, -120026.27, -128388.35, -113247.39, -135087.77, -187500.02, -187500.02, 187500.00, 187500.00, 0.00, 0.00, 0.00
107, -120054.14, -128412.27, -113234.18, -134995.95, -187500.02, -187500.02, 187500.00, 187500.00, 0.00, 0.00, 0.00
108, -120038.09, -128403.13, -113246.38, -135161.44, -187500.02, -187500.02, 187500.00, 187500.00, 0.01, -0.01, 0.00
109, -120015.12, -128383.74, -113249.49, -135230.98, -187500.02, -187500.02, 187500.00, 187500.00, 0.00, 0.00, 0.00
110, -120034.27, -128394.48, -113241.33, -135122.39, -187500.02, -187500.02, 187500.00, 187500.00, 0.00, 0.00, 0.00
111, -120050.84, -128407.41, -113217.59, -135004.69, -187500.02, -187500.02, 187500.00, 187500.00, 0.00, 0.00, 0.00
112, -120032.17, -128389.00, -113208.61, -135114.25, -187500.02, -187500.02, 187500.00, 187500.00, 0.00, 0.00, 0.00
113, -119998.04, -128366.55, -113206.62, -135222.89, -187500.02, -187500.02, 187500.00, 187500.00, 0.00, 0.00, 0.00
114, -120001.84, -128371.72, -113185.05, -135118.75, -187500.02, -187500.02, 187500.00, 187500.00, 0.00, 0.00, 0.00
115, -120004.43, -128365.77, -113160.13, -134980.86, -187500.02, -187500.02, 187500.00, 187500.00, 0.00, 0.00, 0.00
116, -120008.03, -128370.00, -113168.29, -135055.81, -187500.02, -187500.02, 187500.00, 187500.00, 0.00, 0.00, 0.00
117, -119997.73, -128365.86, -113190.77, -135222.86, -187500.02, -187500.02, 187500.00, 187500.00, 0.00, 0.00, 0.00
118, -119998.98, -128363.00, -113181.16, -135142.23, -187500.02, -187500.02, 187500.00, 187500.00, 0.01, -0.00, 0.01
119, -120009.38, -128361.52, -113165.25, -135004.02, -187500.02, -187500.02, 187500.00, 187500.00, 0.00, 0.00, 0.00
120, -120016.19, -128368.55, -113160.04, -135020.33, -187500.02, -187500.02, 187500.00, 187500.00, 0.00, 0.00, 0.00
121, -119991.70, -128352.07, -113173.61, -135204.48, -187500.02, -187500.02, 187500.00, 187500.00, 0.00, 0.00, 0.00
122, -120006.20, -128367.13, -113188.20, -135171.28, -187500.02, -187500.02, 187500.00, 187500.00, 0.00, 0.00, 0.00
123, -120026.77, -128381.17, -113191.63, -135051.73, -187500.02, -187500.02, 187500.00, 187500.00, 0.00, 0.00, 0.00
124, -120017.69, -128374.71, -113167.82, -135002.77, -187500.02, -187500.02, 187500.00, 187500.00, 0.00, 0.00, 0.00
125, -119999.76, -128359.91, -113191.02, -135193.66, -187500.02, -187500.02, 187500.00, 187500.00, 0.00, 0.00, 0.00
126, -120000.41, -128362.13, -113204.92, -135188.84, -187500.02, -187500.02, 187500.00, 187500.00, 0.00, 0.00, 0.00
127, -120030.92, -128386.34, -113212.61, -135073.36, -187500.02, -187500.02, 187500.00, 187500.00, 0.00, 0.00, 0.00
128, -120044.38, -128401.70, -113206.04, -135005.67, -187500.02, -187500.02, 187500.00, 187500.00, 0.01, -0.01, 0.01
129, -120013.15, -128378.24, -113220.21, -135177.31, -187500.02, -187500.02, 187500.00, 187500.00, 0.00, 0.00, 0.00
130, -120015.54, -128382.42, -113239.55, -135223.00, -187500.02, -187500.02, 187500.00, 187500.00, 0.00, 0.00, 0.00
131, -120021.91, -128385.15, -113228.32, -135098.50, -187500.02, -187500.02, 187500.00, 187500.00, 0.00, 0.00, 0.00
132, -120041.05, -128399.63, -113218.20, -134995.19, -187500.02, -187500.02, 187500.00, 187500.00, 0.00, 0.00, 0.00
133, -120024.30, -128386.07, -113228.10, -135140.81, -187500.02, -187500.02, 187500.00, 187500.00, 0.00, 0.00, 0.00
134, -120022.41, -128380.81, -113259.23, -135237.75, -187500.02, -187500.02, 187500.00, 187500.00, 0.00, 0.00, 0.00
135, -120035.03, -128394.30, -113261.29, -135134.44, -187500.02, -187500.02, 187500.00, 187500.00, 0.00, 0.00, 0.00
136, -120042.30, -128399.14, -113232.21, -135000.64, -187500.02, -187500.02, 187500.00, 187500.00, 0.00, 0.00, 0.00
137, -120035.73, -128403.21, -113232.95, -135102.39, -187500.02, -187500.02, 187500.00, 187500.00, 0.00, 0.00, 0.00
138, -120016.28, -128387.50, -113259.46, -135241.66, -187500.02, -187500.02, 187500.00, 187500.00, 0.01, -0.00, 0.01
139, -120021.17, -128387.63, -113251.79, -135147.34, -187500.02, -187500.02, 187500.00, 187500.00, 0.00, 0.00, 0.00
140, -120036.38, -128396.22, -113234.02, -135011.95, -187500.02, -187500.02, 187500.00, 187500.00, 0.00, 0.00, 0.00
141, -120025.82, -128389.94, -113226.36, -135063.27, -187500.02, -187500.02, 187500.00, 187500.00, 0.00, 0.00, 0.00
142, -119992.90, -128368.05, -113240.66, -135224.78, -187500.02, -187500.02, 187500.00, 187500.00, 0.00, 0.00, 0.00
143, -119996.52, -128362.95, -113235.16, -135152.09, -187500.02, -187500.02, 187500.00, 187500.00, 0.00, 0.00, 0.00
144, -120013.04, -128369.28, -113217.41, -135017.88, -187500.02, -187500.02, 187500.00, 187500.00, 0.00, 0.00, 0.00
145, -120013.53, -128370.11, -113200.49, -135010.97, -187500.02, -187500.02, 187500.00, 187500.00, 0.00, 0.00, 0.00
146, -120004.10, -128363.52, -113231.45, -135208.67, -187500.02, -187500.02, 187500.00, 187500.00, 0.00, 0.00, 0.00
147, -120002.73, -128358.98, -113217.08, -135168.03, -187500.02, -187500.02, 187500.00, 187500.00, 0.00, 0.00, 0.00
148, -120016.28, -128371.45, -113201.21, -135039.56, -187500.02, -187500.02, 187500.00, 187500.00, 0.01, -0.00, 0.01
149, -120024.88, -128380.77, -113176.73, -134992.78, -187500.02, -187500.02, 187500.00, 187500.00, 0.00, 0.00, 0.00
150, -119997.26, -128356.01, -113183.66, -135175.59, -187500.02, -187500.02, 187500.00, 187500.00, 0.00, 0.00, 0.00
151, -119993.93, -128350.62, -113188.76, -135176.02, -187500.02, -187500.02, 187500.00, 187500.00, 0.00, 0.00, 0.00
152, -120006.96, -128361.98, -113180.29, -135057.89, -187500.02, -187500.02, 187500.00, 187500.00, 0.00, 0.00, 0.00
153, -120031.32, -128376.28, -113160.66, -134984.39, -187500.02, -187500.02, 187500.00, 187500.00, 0.00, 0.00, 0.00
154, -120008.03, -128356.45, -113164.15, -135146.95, -187500.02, -187500.02, 187500.00, 187500.00, 0.00, 0.00, 0.00
155, -119997.30, -128348.41, -113177.65, -135198.41, -187500.02, -187500.02, 187500.00, 187500.00, 0.00, 0.00, 0.00
156, -120009.17, -128356.54, -113154.56, -135080.02, -187500.02, -187500.02, 187500.00, 187500.00, 0.00, 0.00, 0.00
157, -120034.36, -128378.55, -113145.33, -134979.81, -187500.02, -187500.02, 187500.00, 187500.00, 0.00, 0.00, 0.00
158, -120022.13, -128369.17, -113149.33, -135117.88, -187500.02, -187500.02, 187500.00, 187500.00, 0.01, 0.00, 0.01
159, -119993.23, -128347.22, -113156.22, -135208.33, -187500.02, -187500.02, 187500.00, 187500.00, 0.00, 0.00, 0.00
160, -120001.73, -128351.27, -113148.04, -135103.30, -187500.02, -187500.02, 187500.00, 187500.00, 0.00, 0.00, 0.00
161, -120025.91, -128368.16, -113137.33, -134986.61, -187500.02, -187500.02, 187500.00, 187500.00, 0.00, 0.00, 0.00
162, -120015.90, -128361.68, -113135.52, -135074.88, -187500.02, -187500.02, 187500.00, 187500.00, 0.00, 0.00, 0.00
163, -119999.74, -128350.87, -113152.38, -135212.25, -187500.02, -187500.02, 187500.00, 187500.00, 0.00, 0.00, 0.00
164, -120009.48, -128358.62, -113153.78, -135131.95, -187500.02, -187500.02, 187500.00, 187500.00, 0.00, 0.00, 0.00
165, -120021.73, -128368.79, -113147.79, -135007.66, -187500.02, -187500.02, 187500.00, 187500.00, 0.00, 0.00, 0.00
166, -120020.73, -128364.37, -113137.62, -135045.30, -187500.02, -187500.02, 187500.00, 187500.00, 0.00, 0.00, 0.00
167, -119996.21, -128349.01, -113167.19, -135218.58, -187500.02, -187500.02, 187500.00, 187500.00, 0.00, 0.00, 0.00
168, -119995.72, -128349.91, -113173.34, -135155.66, -187500.02, -187500.02, 187500.00, 187500.00, 0.00, 0.00, 0.01
169, -120007.59, -128356.14, -113156.64, -135020.67, -187500.02, -187500.02, 187500.00, 187500.00, 0.00, 0.00, 0.00
170, -120006.35, -128357.84, -113143.86, -135003.42, -187500.02, -187500.02, 187500.00, 187500.00, 0.00, 0.00, 0.00
171, -119984.38, -128343.16, -113166.43, -135190.98, -187500.02, -187500.02, 187500.00, 187500.00, 0.00, 0.00, 0.00
172, -119997.39, -128351.45, -113188.83, -135177.69, -187500.02, -187500.02, 187500.00, 187500.00, 0.00, 0.00, 0.00
173, -119998.38, -128342.95, -113175.84, -135045.91, -187500.02, -187500.02, 187500.00, 187500.00, 0.00, 0.00, 0.00
174, -119998.17, -128345.32, -113156.13, -134983.97, -187500.02, -187500.02, 187500.00, 187500.00, 0.00, 0.00, 0.00
175, -119959.62, -128319.05, -113164.69, -135158.61, -187500.02, -187500.02, 187500.00, 187500.00, 0.00, 0.00, 0.00
176, -119952.51, -128308.13, -113178.50, -135168.50, -187500.02, -187500.02, 187500.00, 187500.00, 0.00, 0.00, 0.00
177, -119986.30, -128330.57, -113190.77, -135056.59, -187500.02, -187500.02, 187500.00, 187500.00, 0.00, 0.00, 0.00
178, -120004.52, -128352.63, -113178.28, -134973.94, -187500.02, -187500.02, 187500.00, 187500.00, 0.00, 0.00, 0.00
179, -119977.61, -128339.04, -113190.70, -135135.11, -187500.02, -187500.02, 187500.00, 187500.00, 0.00, 0.00, 0.00
180, -119971.60, -128329.56, -113209.15, -135191.77, -187500.02, -187500.02, 187500.00, 187500.00, 0.00, 0.00, 0.00
181, -119990.73, -128342.75, -113216.70, -135083.20, -187500.02, -187500.02, 187500.00, 187500.00, 0.00, 0.00, 0.00
182, -120012.41, -128359.16, -113206.13, -134972.38, -187500.02, -187500.02, 187500.00, 187500.00, 0.00, 0.00, 0.00
183, -119989.21, -128345.16, -113208.90, -135094.98, -187500.02, -187500.02, 187500.00, 187500.00, 0.00, 0.00, 0.00
184, -119979.06, -128338.15, -113235.66, -135208.64, -187500.02, -187500.02, 187500.00, 187500.00, 0.00, 0.00, 0.00
185, -119988.09, -128342.80, -113237.35, -135109.92, -187500.02, -187500.02, 187500.00, 187500.00, 0.00, 0.00, 0.00
186, -120000.08, -128354.28, -113216.92, -134981.38, -187500.02, -187500.02, 187500.00, 187500.00, 0.00, 0.00, 0.00
187, -119991.07, -128343.53, -113204.63, -135053.08, -187500.02, -187500.02, 187500.00, 187500.00, 0.00, 0.00, 0.00
188, -119979.84, -128336.58, -113240.41, -135211.78, -187500.02, -187500.02, 187500.00, 187500.00, 0.00, -0.00, 0.01
189, -119996.92, -128344.20, -113245.35, -135138.89, -187500.02, -187500.02, 187500.00, 187500.00, 0.00, 0.00, 0.00
190, -120011.30, -128354.62, -113226.67, -135008.94, -187500.02, -187500.02, 187500.00, 187500.00, 0.00, 0.00, 0.00
191, -120011.59, -128357.88, -113223.31, -135042.78, -187500.02, -187500.02, 187500.00, 187500.00, 0.00, 0.00, 0.00
192, -119972.73, -128334.23, -113232.81, -135220.05, -187500.02, -187500.02, 187500.00, 187500.00, 0.00, 0.00, 0.00
193, -119983.80, -128343.47, -113216.30, -135165.27, -187500.02, -187500.02, 187500.00, 187500.00, 0.00, 0.00, 0.00
194, -120003.18, -128347.27, -113195.73, -135030.81, -187500.02, -187500.02, 187500.00, 187500.00, 0.00, 0.00, 0.00
195, -120004.41, -128350.57, -113177.31, -135004.33, -187500.02, -187500.02, 187500.00, 187500.00, 0.00, 0.00, 0.00
196, -119981.95, -128343.35, -113193.72, -135196.69, -187500.02, -187500.02, 187500.00, 187500.00, 0.00, 0.00, 0.00
197, -119975.09, -128331.51, -113190.99, -135171.66, -187500.02, -187500.02, 187500.00, 187500.00, 0.00, 0.00, 0.00
198, -119995.60, -128344.20, -113183.24, -135052.86, -187500.02, -187500.02, 187500.00, 187500.00, 0.00, 0.00, 0.00
199, -120010.87, -128357.99, -113165.49, -134993.83, -187500.02, -187500.02, 187500.00, 187500.00, 0.00, 0.00, 0.00
200, -119990.17, -128345.91, -113170.59, -135174.00, -187500.02, -187500.02, 187500.00, 187500.00, 0.00, 0.00, 0.00
201, -119978.62, -128335.66, -113171.73, -135197.78, -187500.02, -187500.02, 187500.00, 187500.00, 0.00, 0.00, 0.00
202, -120005.13, -128356.66, -113166.37, -135085.64, -187500.02, -187500.02, 187500.00, 187500.00, 0.00, 0.00, 0.00
203, -120022.98, -128367.92, -113143.03, -134987.39, -187500.02, -187500.02, 187500.00, 187500.00, 0.00, 0.00, 0.00
204, -119985.10, -128343.09, -113138.47, -135131.84, -187500.02, -187500.02, 187500.00, 187500.00, 0.00, 0.00, 0.00
205, -119963.93, -128322.66, -113147.12, -135196.00, -187500.02, -187500.02, 187500.00, 187500.00, 0.00, 0.00, 0.00
206, -119984.38, -128332.52, -113136.39, -135086.88, -187500.02, -187500.02, 187500.00, 187500.00, 0.00, 0.00, 0.00
207, -120003.13, -128345.21, -113123.72, -134974.14, -187500.02, -187500.02, 187500.00, 187500.00, 0.00, 0.00, 0.00
208, -119992.90, -128344.34, -113120.14, -135093.20, -187500.02, -187500.02, 187500.00, 187500.00, 0.00, -0.00, 0.01
209, -119978.33, -128332.58, -113142.29, -135217.75, -187500.02, -187500.02, 187500.00, 187500.00, 0.00, 0.00, 0.00
210, -119980.00, -128332.00, -113132.41, -135114.14, -187500.02, -187500.02, 187500.00, 187500.00, 0.00, 0.00, 0.00
211, -119995.60, -128342.20, -113113.86, -134979.78, -187500.02, -187500.02, 187500.00, 187500.00, 0.00, 0.00, 0.00
212, -119992.52, -128340.45, -113111.00, -135049.66, -187500.02, -187500.02, 187500.00, 187500.00, 0.00, 0.00, 0.00
213, -119984.07, -128336.45, -113142.98, -135218.08, -187500.02, -187500.02, 187500.00, 187500.00, 0.00, 0.00, 0.00
214, -119984.61, -128341.97, -113148.66, -135145.97, -187500.02, -187500.02, 187500.00, 187500.00, 0.00, 0.00, 0.00
215, -119985.97, -128342.39, -113116.41, -134999.80, -187500.02, -187500.02, 187500.00, 187500.00, 0.00, 0.00, 0.00
216, -119987.58, -128337.45, -113105.12, -135009.94, -187500.02, -187500.02, 187500.00, 187500.00, 0.00, 0.00, 0.00
217, -119967.98, -128321.90, -113134.80, -135188.48, -187500.02, -187500.02, 187500.00, 187500.00, 0.00, 0.00, 0.00
218, -119972.47, -128329.45, -113140.55, -135143.31, -187500.02, -187500.02, 187500.00, 187500.00, 0.00, 0.00, 0.00
219, -119994.66, -128347.31, -113138.73, -135016.95, -187500.02, -187500.02, 187500.00, 187500.00, 0.01, -0.00, 0.01
220, -119994.76, -128344.20, -113129.15, -134977.84, -187500.02, -187500.02, 187500.00, 187500.00, 0.00, 0.00, 0.00
221, -119974.37, -128336.72, -113148.88, -135173.64, -187500.02, -187500.02, 187500.00, 187500.00, 0.00, 0.00, 0.00
222, -119983.87, -128343.65, -113165.60, -135173.95, -187500.02, -187500.02, 187500.00, 187500.00, 0.00, 0.00, 0.00
223, -120000.39, -128351.24, -113160.11, -135046.53, -187500.02, -187500.02, 187500.00, 187500.00, 0.00, 0.00, 0.00
224, -120010.13, -128361.55, -113145.94, -134968.45, -187500.02, -187500.02, 187500.00, 187500.00, 0.00, 0.00, 0.00
225, -119979.45, -128345.19, -113156.41, -135144.44, -187500.02, -187500.02, 187500.00, 187500.00, 0.00, 0.00, 0.00
226, -119971.30, -128332.36, -113158.48, -135179.56, -187500.02, -187500.02, 187500.00, 187500.00, 0.00, 0.00, 0.00
227, -119988.18, -128342.73, -113153.98, -135058.59, -187500.02, -187500.02, 187500.00, 187500.00, 0.00, 0.00, 0.00
228, -120008.57, -128362.53, -113147.21, -134959.58, -187500.02, -187500.02, 187500.00, 187500.00, 0.00, 0.00, 0.00
229, -119994.80, -128360.88, -113157.76, -135119.39, -187500.02, -187500.02, 187500.00, 187500.00, 0.01, 0.00, 0.01
230, -119963.93, -128332.29, -113160.71, -135194.56, -187500.02, -187500.02, 187500.00, 187500.00, 0.00, 0.00, 0.00
231, -119981.74, -128339.76, -113160.27, -135089.27, -187500.02, -187500.02, 187500.00, 187500.00, 0.00, 0.00, 0.00
232, -120000.19, -128348.41, -113134.71, -134961.77, -187500.02, -187500.02, 187500.00, 187500.00, 0.00, 0.00, 0.00
233, -120001.64, -128352.25, -113144.80, -135078.67, -187500.02, -187500.02, 187500.00, 187500.00, 0.00, 0.00, 0.00
234, -119973.37, -128330.34, -113155.63, -135206.09, -187500.02, -187500.02, 187500.00, 187500.00, 0.00, 0.00, 0.00
235, -119975.80, -128329.02, -113145.17, -135109.11, -187500.02, -187500.02, 187500.00, 187500.00, 0.00, 0.00, 0.00
236, -119974.91, -128328.09, -113110.28, -134966.48, -187500.02, -187500.02, 187500.00, 187500.00, 0.00, 0.00, 0.00
237, -119964.70, -128318.86, -113090.77, -135011.73, -187500.02, -187500.02, 187500.00, 187500.00, 0.00, 0.00, 0.00
238, -119952.40, -128314.56, -113118.77, -135189.88, -187500.02, -187500.02, 187500.00, 187500.00, 0.00, 0.00, 0.00
239, -119954.81, -128316.29, -113124.45, -135131.09, -187500.02, -187500.02, 187500.00, 187500.00, 0.01, 0.00, 0.01
240, -119974.59, -128326.14, -113105.05, -134992.95, -187500.02, -187500.02, 187500.00, 187500.00, 0.00, 0.00, 0.00
241, -119983.76, -128338.05, -113088.40, -134999.38, -187500.02, -187500.02, 187500.00, 187500.00, 0.00, 0.00, 0.00
242, -119965.74, -128325.61, -113111.13, -135193.61, -187500.02, -187500.02, 187500.00, 187500.00, 0.00, 0.00, 0.00
243, -119958.03, -128314.68, -113104.65, -135139.09, -187500.02, -187500.02, 187500.00, 187500.00, 0.00, 0.00, 0.00
244, -119973.45, -128329.01, -113097.79, -135011.03, -187500.02, -187500.02, 187500.00, 187500.00, 0.00, 0.00, 0.00
245, -119983.58, -128338.33, -113084.27, -134976.06, -187500.02, -187500.02, 187500.00, 187500.00, 0.00, 0.00, 0.00
246, -119963.51, -128324.24, -113097.38, -135169.94, -187500.02, -187500.02, 187500.00, 187500.00, 0.00, 0.00, 0.00
247, -119963.06, -128322.19, -113112.14, -135175.44, -187500.02, -187500.02, 187500.00, 187500.00, 0.00, 0.00, 0.00
248, -119973.72, -128330.97, -113102.26, -135046.95, -187500.02, -187500.02, 187500.00, 187500.00, 0.00, 0.00, 0.00
249, -119989.01, -128346.39, -113091.69, -134967.00, -187500.02, -187500.02, 187500.00, 187500.00, 0.01, -0.01, 0.01
250, -119966.34, -128326.03, -113105.21, -135139.67, -187500.02, -187500.02, 187500.00, 187500.00, 0.00, 0.00, 0.00
251, -119962.91, -128321.56, -113123.20, -135188.70, -187500.02, -187500.02, 187500.00, 187500.00, 0.00, 0.00, 0.00
252, -119969.12, -128320.24, -113111.18, -135061.64, -187500.02, -187500.02, 187500.00, 187500.00, 0.00, 0.00, 0.00
253, -119990.15, -128336.90, -113104.72, -134955.56, -187500.02, -187500.02, 187500.00, 187500.00, 0.00, 0.00, 0.00
254, -119979.51, -128330.84, -113118.42, -135099.80, -187500.02, -187500.02, 187500.00, 187500.00, 0.00, 0.00, 0.00
255, -119956.13, -128311.50, -113129.15, -135185.94, -187500.02, -187500.02, 187500.00, 187500.00, 0.00, 0.00, 0.00
0, -119962.95, -128318.32, -113125.04, -135078.53, -187500.02, -187500.02, 187500.00, 187500.00, 0.00, 0.00, 0.00
1, -119979.94, -128333.05, -113114.33, -134954.80, -187500.02, -187500.02, 187500.00, 187500.00, 0.00, 0.00, 0.00
2, -119974.33, -128325.92, -113116.85, -135053.34, -187500.02, -187500.02, 187500.00, 187500.00, 0.00, 0.00, 0.00
3, -119947.75, -128307.15, -113136.13, -135193.00, -187500.02, -187500.02, 187500.00, 187500.00, 0.01, -0.00, 0.01
4, -119953.18, -128309.27, -113123.09, -135090.52, -187500.02, -187500.02, 187500.00, 187500.00, 0.00, 0.00, 0.00
5, -119970.03, -128321.20, -113116.23, -134960.52, -187500.02, -187500.02, 187500.00, 187500.00, 0.00, 0.00, 0.00
6, -119963.35, -128316.78, -113109.41, -135003.58, -187500.02, -187500.02, 187500.00, 187500.00, 0.00, 0.00, 0.00
7, -119946.50, -128302.83, -113131.02, -135177.67, -187500.02, -187500.02, 187500.00, 187500.00, 0.00, 0.00, 0.00
8, -119949.20, -128304.84, -113131.72, -135112.58, -187500.02, -187500.02, 187500.00, 187500.00, 0.00, 0.00, 0.00
9, -119968.49, -128319.55, -113119.74, -134982.78, -187500.02, -187500.02, 187500.00, 187500.00, 0.00, 0.00, 0.00
10, -119969.01, -128321.63, -113105.70, -134973.83, -187500.02, -187500.02, 187500.00, 187500.00, 0.00, 0.00, 0.00
11, -119941.00, -128299.50, -113125.33, -135159.94, -187500.02, -187500.02, 187500.00, 187500.00, 0.00, 0.00, 0.00
12, -119937.09, -128297.69, -113130.55, -135127.95, -187500.02, -187500.02, 187500.00, 187500.00, 0.00, 0.00, 0.00
13, -119975.94, -128328.80, -113138.78, -135011.78, -187500.02, -187500.02, 187500.00, 187500.00, 0.01, -0.00, 0.01
14, -119974.91, -128331.84, -113120.59, -134959.88, -187500.02, -187500.02, 187500.00, 187500.00, 0.00, 0.00, 0.00
15, -119959.33, -128318.09, -113140.50, -135156.50, -187500.02, -187500.02, 187500.00, 187500.00, 0.00, 0.00, 0.00
16, -119953.92, -128314.14, -113156.46, -135171.03, -187500.02, -187500.02, 187500.00, 187500.00, 0.00, 0.00, 0.00
17, -119974.55, -128324.98, -113153.89, -135050.28, -187500.02, -187500.02, 187500.00, 187500.00, 0.00, 0.00, 0.00
18, -119983.98, -128336.72, -113127.96, -134955.83, -187500.02, -187500.02, 187500.00, 187500.00, 0.00, 0.00, 0.00
19, -119969.90, -128325.67, -113139.66, -135128.98, -187500.02, -187500.02, 187500.00, 187500.00, 0.00, 0.00, 0.00
20, -119970.30, -128328.36, -113166.74, -135196.11, -187500.02, -187500.02, 187500.00, 187500.00, 0.00, 0.00, 0.00
21, -119978.55, -128330.08, -113155.45, -135079.67, -187500.02, -187500.02, 187500.00, 187500.00, 0.00, 0.00, 0.00
22, -119985.63, -128335.76, -113127.49, -134960.45, -187500.02, -187500.02, 187500.00, 187500.00, 0.00, 0.00, 0.00
23, -119974.80, -128333.19, -113129.13, -135093.30, -187500.02, -187500.02, 187500.00, 187500.00, 0.01, -0.01, 0.01
24, -119978.80, -128338.70, -113162.05, -135214.73, -187500.02, -187500.02, 187500.00, 187500.00, 0.00, 0.00, 0.00
25, -119972.36, -128330.10, -113144.41, -135104.52, -187500.02, -187500.02, 187500.00, 187500.00, 0.00, 0.00, 0.00
26, -119984.20, -128338.70, -113118.11, -134971.36, -187500.02, -187500.02, 187500.00, 187500.00, 0.00, 0.00, 0.00
27, -119975.76, -128332.76, -113108.96, -135051.16, -187500.02, -187500.02, 187500.00, 187500.00, 0.00, 0.00, 0.00
28, -119960.24, -128323.23, -113132.55, -135205.05, -187500.02, -187500.02, 187500.00, 187500.00, 0.00, 0.00, 0.00
29, -119963.87, -128322.97, -113122.55, -135121.20, -187500.02, -187500.02, 187500.00, 187500.00, 0.00, 0.00, 0.00
30, -119984.30, -128337.16, -113104.02, -134988.75, -187500.02, -187500.02, 187500.00, 187500.00, 0.00, 0.00, 0.00
31, -119983.80, -128338.10, -113090.37, -135017.19, -187500.02, -187500.02, 187500.00, 187500.00, 0.00, 0.00, 0.00
32, -119952.73, -128313.80, -113110.04, -135193.20, -187500.02, -187500.02, 187500.00, 187500.00, 0.00, 0.00, 0.00
33, -119935.45, -128297.09, -113095.71, -135120.09, -187500.02, -187500.02, 187500.00, 187500.00, 0.01, -0.00, 0.01
34, -119953.80, -128309.34, -113086.32, -134985.36, -187500.02, -187500.02, 187500.00, 187500.00, 0.00, 0.00, 0.00
35, -119969.32, -128326.13, -113082.57, -134972.59, -187500.02, -187500.02, 187500.00, 187500.00, 0.00, 0.00, 0.00
36, -119946.70, -128306.74, -113110.22, -135171.25, -187500.02, -187500.02, 187500.00, 187500.00, 0.00, 0.00, 0.00
37, -119939.10, -128299.39, -113113.91, -135143.45, -187500.02, -187500.02, 187500.00, 187500.00, 0.00, 0.00, 0.00
38, -119959.95, -128312.55, -113114.11, -135018.41, -187500.02, -187500.02, 187500.00, 187500.00, 0.00, 0.00, 0.00
39, -119978.37, -128331.33, -113109.19, -134959.16, -187500.02, -187500.02, 187500.00, 187500.00, 0.00, 0.00, 0.00
40, -119976.49, -128333.45, -113147.23, -135161.13, -187500.02, -187500.02, 187500.00, 187500.00, 0.00, 0.00, 0.00
41, -119956.76, -128314.88, -113154.61, -135174.31, -187500.02, -187500.02, 187500.00, 187500.00, 0.00, 0.00, 0.00
42, -119970.46, -128325.59, -113143.90, -135043.80, -187500.02, -187500.02, 187500.00, 187500.00, 0.00, 0.00, 0.00
43, -119999.52, -128352.72, -113146.12, -134961.59, -187500.02, -187500.02, 187500.00, 187500.00, 0.01, -0.01, 0.01
44, -119981.03, -128334.37, -113162.54, -135129.23, -187500.02, -187500.02, 187500.00, 187500.00, 0.00, 0.00, 0.00
45, -119956.76, -128317.60, -113175.41, -135196.00, -187500.02, -187500.02, 187500.00, 187500.00, 0.00, 0.00, 0.00
46, -119967.30, -128320.06, -113169.98, -135082.67, -187500.02, -187500.02, 187500.00, 187500.00, 0.00, 0.00, 0.00
47, -119998.04, -128347.76, -113167.86, -134978.98, -187500.02, -187500.02, 187500.00, 187500.00, 0.00, 0.00, 0.00
48, -119994.11, -128344.45, -113173.13, -135104.58, -187500.02, -187500.02, 187500.00, 187500.00, 0.00, 0.00, 0.00
49, -119971.13, -128330.15, -113187.91, -135214.73, -187500.02, -187500.02, 187500.00, 187500.00, 0.00, 0.00, 0.00
50, -119983.11, -128338.70, -113176.35, -135113.61, -187500.02, -187500.02, 187500.00, 187500.00, 0.00, 0.00, 0.00
51, -119980.45, -128330.44, -113137.58, -134958.52, -187500.02, -187500.02, 187500.00, 187500.00, 0.00, 0.00, 0.00
52, -119975.73, -128334.44, -113134.58, -135035.64, -187500.02, -187500.02, 187500.00, 187500.00, 0.00, 0.00, 0.00
53, -119963.40, -128319.46, -113159.63, -135197.05, -187500.02, -187500.02, 187500.00, 187500.00, 0.00, -0.00, 0.01
54, -119980.25, -128326.68, -113167.30, -135124.52, -187500.02, -187500.02, 187500.00, 187500.00, 0.00, 0.00, 0.00
55, -119973.45, -128318.34, -113134.36, -134973.00, -187500.02, -187500.02, 187500.00, 187500.00, 0.00, 0.00, 0.00
56, -119976.90, -128328.89, -113124.23, -134991.05, -187500.02, -187500.02, 187500.00, 187500.00, 0.00, 0.00, 0.00
57, -119959.62, -128324.02, -113155.63, -135185.61, -187500.02, -187500.02, 187500.00, 187500.00, 0.00, 0.00, 0.00
58, -119958.57, -128316.51, -113158.48, -135133.41, -187500.02, -187500.02, 187500.00, 187500.00, 0.00, 0.00, 0.00
59, -119986.26, -128336.52, -113154.25, -135006.23, -187500.02, -187500.02, 187500.00, 187500.00, 0.00, 0.00, 0.00
60, -120000.34, -128349.48, -113138.58, -134977.23, -187500.02, -187500.02, 187500.00, 187500.00, 0.00, 0.00, 0.00
61, -119953.54, -128312.13, -113137.75, -135154.78, -187500.02, -187500.02, 187500.00, 187500.00, 0.00, 0.00, 0.00
62, -119938.54, -128301.22, -113146.78, -135139.63, -187500.02, -187500.02, 187500.00, 187500.00, 0.00, 0.00, 0.00
63, -119960.58, -128316.58, -113147.27, -135019.78, -187500.02, -187500.02, 187500.00, 187500.00, 0.00, -0.00, 0.01
64, -119993.52, -128344.38, -113145.51, -134962.48, -187500.02, -187500.02, 187500.00, 187500.00, 0.00, 0.00, 0.00
65, -119972.98, -128331.48, -113157.71, -135147.94, -187500.02, -187500.02, 187500.00, 187500.00, 0.00, 0.00, 0.00
66, -119967.04, -128326.26, -113169.07, -135177.92, -187500.02, -187500.02, 187500.00, 187500.00, 0.00, 0.00, 0.00
67, -119995.20, -128349.32, -113161.38, -135060.14, -187500.02, -187500.02, 187500.00, 187500.00, 0.00, 0.00, 0.00
68, -119991.67, -128345.10, -113127.34, -134946.47, -187500.02, -187500.02, 187500.00, 187500.00, 0.00, 0.00, 0.00
69, -119972.00, -128327.10, -113129.04, -135101.14, -187500.02, -187500.02, 187500.00, 187500.00, 0.00, 0.00, 0.00
70, -119967.64, -128320.76, -113146.65, -135188.64, -187500.02, -187500.02, 187500.00, 187500.00, 0.00, 0.00, 0.00
71, -119967.87, -128318.92, -113124.95, -135066.73, -187500.02, -187500.02, 187500.00, 187500.00, 0.00, 0.00, 0.00
72, -119976.85, -128326.66, -113096.63, -134938.58, -187500.02, -187500.02, 187500.00, 187500.00, 0.00, 0.00, 0.00
73, -119966.13, -128319.17, -113092.27, -135044.63, -187500.02, -187500.02, 187500.00, 187500.00, 0.00, 0.00, 0.00
74, -119947.10, -128308.93, -113126.35, -135187.03, -187500.02, -187500.02, 187500.00, 187500.00, 0.00, -0.00, 0.01
75, -119938.45, -128299.43, -113107.96, -135077.42, -187500.02, -187500.02, 187500.00, 187500.00, 0.00, 0.00, 0.00
76, -119962.68, -128313.29, -113097.38, -134946.39, -187500.02, -187500.02, 187500.00, 187500.00, 0.00, 0.00, 0.00
77, -119945.47, -128300.38, -113080.11, -134993.67, -187500.02, -187500.02, 187500.00, 187500.00, 0.00, 0.00, 0.00
78, -119930.76, -128294.96, -113104.95, -135168.39, -187500.02, -187500.02, 187500.00, 187500.00, 0.00, 0.00, 0.00
79, -119929.71, -128285.73, -113103.35, -135092.83, -187500.02, -187500.02, 187500.00, 187500.00, 0.00, 0.00, 0.00
80, -119961.85, -128315.99, -113106.33, -134969.81, -187500.02, -187500.02, 187500.00, 187500.00, 0.00, 0.00, 0.00
81, -119990.06, -128343.71, -113117.52, -134997.53, -187500.02, -187500.02, 187500.00, 187500.00, 0.00, 0.00, 0.00
82, -119969.54, -128328.70, -113140.30, -135188.73, -187500.02, -187500.02, 187500.00, 187500.00, 0.00, 0.00, 0.00
83, -119968.88, -128328.63, -113143.88, -135145.97, -187500.02, -187500.02, 187500.00, 187500.00, 0.00, 0.00, 0.00
84, -120000.55, -128346.80, -113136.63, -135015.80, -187500.02, -187500.02, 187500.00, 187500.00, 0.01, -0.00, 0.01
85, -120004.14, -128349.50, -113116.45, -134973.22, -187500.02, -187500.02, 187500.00, 187500.00, 0.00, 0.00, 0.00
86, -119977.72, -128332.02, -113137.46, -135177.92, -187500.02, -187500.02, 187500.00, 187500.00, 0.00, 0.00, 0.00
87, -119965.97, -128325.59, -113141.80, -135175.88, -187500.02, -187500.02, 187500.00, 187500.00, 0.00, 0.00, 0.00
88, -119966.39, -128321.43, -113124.73, -135041.20, -187500.02, -187500.02, 187500.00, 187500.00, 0.00, 0.00, 0.00
89, -119972.31, -128325.77, -113101.70, -134959.14, -187500.02, -187500.02, 187500.00, 187500.00, 0.00, 0.00, 0.00
90, -119963.55, -128318.43, -113117.91, -135143.66, -187500.02, -187500.02, 187500.00, 187500.00, 0.00, 0.00, 0.00
91, -119948.02, -128311.28, -113126.78, -135188.38, -187500.02, -187500.02, 187500.00, 187500.00, 0.00, 0.00, 0.00
92, -119966.84, -128324.76, -113118.84, -135064.59, -187500.02, -187500.02, 187500.00, 187500.00, 0.00, 0.00, 0.00
93, -119966.10, -128324.78, -113090.21, -134946.33, -187500.02, -187500.02, 187500.00, 187500.00, 0.00, 0.00, 0.00
94, -119952.66, -128309.23, -113090.46, -135089.88, -187500.02, -187500.02, 187500.00, 187500.00, 0.00, -0.01, 0.01
95, -119940.38, -128300.17, -113113.34, -135188.73, -187500.02, -187500.02, 187500.00, 187500.00, 0.00, 0.00, 0.00
96, -119956.84, -128311.48, -113110.10, -135081.89, -187500.02, -187500.02, 187500.00, 187500.00, 0.00, 0.00, 0.00
97, -119985.28, -128337.23, -113099.60, -134959.09, -187500.02, -187500.02, 187500.00, 187500.00, 0.00, 0.00, 0.00
98, -119972.31, -128333.97, -113101.68, -135062.44, -187500.02, -187500.02, 187500.00, 187500.00, 0.00, 0.00, 0.00
99, -119940.24, -128303.97, -113114.13, -135194.23, -187500.02, -187500.02, 187500.00, 187500.00, 0.00, 0.00, 0.00
100, -119941.47, -128299.95, -113116.52, -135100.73, -187500.02, -187500.02, 187500.00, 187500.00, 0.00, 0.00, 0.00
101, -119982.46, -128335.82, -113117.44, -134978.58, -187500.02, -187500.02, 187500.00, 187500.00, 0.00, 0.00, 0.00
102, -119978.15, -128332.13, -113106.53, -135019.44, -187500.02, -187500.02, 187500.00, 187500.00, 0.00, 0.00, 0.00
103, -119959.82, -128317.94, -113143.63, -135198.30, -187500.02, -187500.02, 187500.00, 187500.00, 0.00, 0.00, 0.00
104, -119955.48, -128313.47, -113155.21, -135139.02, -187500.02, -187500.02, 187500.00, 187500.00, 0.00, -0.01, 0.01
105, -119972.41, -128321.56, -113140.75, -134996.80, -187500.02, -187500.02, 187500.00, 187500.00, 0.00, 0.00, 0.00
106, -119983.71, -128339.51, -113140.37, -134995.77, -187500.02, -187500.02, 187500.00, 187500.00, 0.00, 0.00, 0.00
107, -119932.39, -128298.30, -113144.62, -135171.33, -187500.02, -187500.02, 187500.00, 187500.00, 0.00, 0.00, 0.00
108, -119928.62, -128291.72, -113142.60, -135127.05, -187500.02, -187500.02, 187500.00, 187500.00, 0.00, 0.00, 0.00
109, -119952.45, -128307.70, -113142.85, -134999.95, -187500.02, -187500.02, 187500.00, 187500.00, 0.00, 0.00, 0.00
110, -119968.45, -128326.14, -113135.72, -134951.42, -187500.02, -187500.02, 187500.00, 187500.00, 0.00, 0.00, 0.00
111, -119957.31, -128322.45, -113158.70, -135149.13, -187500.02, -187500.02, 187500.00, 187500.00, 0.00, 0.00, 0.00
112, -119949.94, -128317.36, -113181.09, -135165.70, -187500.02, -187500.02, 187500.00, 187500.00, 0.00, 0.00, 0.00
113, -119934.18, -128300.22, -113151.92, -135016.53, -187500.02, -187500.02, 187500.00, 187500.00, 0.00, 0.00, 0.00
114, -119938.07, -128303.05, -113125.41, -134913.77, -187500.02, -187500.02, 187500.00, 187500.00, 0.00, -0.01, 0.01
115, -119944.42, -128308.66, -113171.33, -135109.31, -187500.02, -187500.02, 187500.00, 187500.00, 0.00, 0.00, 0.00
116, -119936.51, -128300.59, -113190.05, -135168.84, -187500.02, -187500.02, 187500.00, 187500.00, 0.00, 0.00, 0.00
117, -119943.32, -128302.32, -113187.13, -135047.77, -187500.02, -187500.02, 187500.00, 187500.00, 0.00, 0.00, 0.00
118, -119980.07, -128333.25, -113191.64, -134942.97, -187500.02, -187500.02, 187500.00, 187500.00, 0.00, 0.00, 0.00
119, -119973.30, -128333.81, -113198.53, -135083.14, -187500.02, -187500.02, 187500.00, 187500.00, 0.00, 0.00, 0.00
120, -119956.66, -128322.57, -113223.85, -135198.77, -187500.02, -187500.02, 187500.00, 187500.00, 0.00, 0.00, 0.00
121, -119964.00, -128324.96, -113226.38, -135098.00, -187500.02, -187500.02, 187500.00, 187500.00, 0.00, 0.00, 0.00
122, -119960.58, -128326.19, -113200.98, -134954.69, -187500.02, -187500.02, 187500.00, 187500.00, 0.00, 0.00, 0.00
123, -119973.23, -128342.51, -113213.08, -135045.50, -187500.02, -187500.02, 187500.00, 187500.00, 0.00, 0.00, 0.00
124, -119963.98, -128332.73, -113249.45, -135208.61, -187500.02, -187500.02, 187500.00, 187500.00, 0.01, -0.01, 0.01
125, -119968.55, -128327.89, -113254.95, -135127.73, -187500.02, -187500.02, 187500.00, 187500.00, 0.00, 0.00, 0.00
126, -119966.75, -128326.45, -113238.67, -134987.52, -187500.02, -187500.02, 187500.00, 187500.00, 0.00, 0.00, 0.00
127, -119963.30, -128327.64, -113228.84, -135011.48, -187500.02, -187500.02, 187500.00, 187500.00, 0.00, 0.00, 0.00
128, -119968.34, -128334.26, -113257.45, -135206.80, -187500.02, -187500.02, 187500.00, 187500.00, 0.00, 0.00, 0.00
129, -119958.88, -128324.29, -113261.41, -135153.14, -187500.02, -187500.02, 187500.00, 187500.00, 0.00, 0.00, 0.00
130, -119967.46, -128328.85, -113248.48, -135012.91, -187500.02, -187500.02, 187500.00, 187500.00, 0.00, 0.00, 0.00
131, -119967.73, -128326.79, -113235.37, -134989.13, -187500.02, -187500.02, 187500.00, 187500.00, 0.00, 0.00, 0.00
132, -119945.98, -128308.64, -113243.61, -135175.28, -187500.02, -187500.02, 187500.00, 187500.00, 0.00, 0.00, 0.00
133, -119931.77, -128298.56, -113239.39, -135146.44, -187500.02, -187500.02, 187500.00, 187500.00, 0.00, 0.00, 0.00
134, -119956.69, -128312.77, -113238.27, -135021.47, -187500.02, -187500.02, 187500.00, 187500.00, 0.00, -0.01, 0.01
135, -119956.51, -128311.28, -113214.69, -134946.69, -187500.02, -187500.02, 187500.00, 187500.00, 0.00, 0.00, 0.00
136, -119935.74, -128302.96, -113217.44, -135129.08, -187500.02, -187500.02, 187500.00, 187500.00, 0.00, 0.00, 0.00
137, -119938.09, -128296.53, -113232.80, -135162.95, -187500.02, -187500.02, 187500.00, 187500.00, 0.00, 0.00, 0.00
138, -119944.09, -128296.04, -113221.13, -135033.98, -187500.02, -187500.02, 187500.00, 187500.00, 0.00, 0.00, 0.00
139, -119963.84, -128311.88, -113206.82, -134935.33, -187500.02, -187500.02, 187500.00, 187500.00, 0.00, 0.00, 0.00
140, -119940.15, -128297.04, -113199.27, -135090.72, -187500.02, -187500.02, 187500.00, 187500.00, 0.00, 0.00, 0.00
141, -119905.39, -128272.88, -113193.34, -135155.27, -187500.02, -187500.02, 187500.00, 187500.00, 0.00, 0.00, 0.00
142, -119901.10, -128266.29, -113179.06, -135034.28, -187500.02, -187500.02, 187500.00, 187500.00, 0.00, 0.00, 0.00
143, -119947.81, -128296.93, -113182.14, -134927.83, -187500.02, -187500.02, 187500.00, 187500.00, 0.00, 0.00, 0.00
144, -119963.73, -128312.89, -113184.00, -135056.36, -187500.02, -187500.02, 187500.00, 187500.00, 0.01, -0.00, 0.01
145, -119964.38, -128320.65, -113209.99, -135191.59, -187500.02, -187500.02, 187500.00, 187500.00, 0.00, 0.00, 0.00
146, -119953.18, -128308.09, -113196.70, -135090.30, -187500.02, -187500.02, 187500.00, 187500.00, 0.00, 0.00, 0.00
147, -119944.69, -128304.77, -113168.69, -134947.58, -187500.02, -187500.02, 187500.00, 187500.00, 0.00, 0.00, 0.00
148, -119965.01, -128316.27, -113179.33, -135027.80, -187500.02, -187500.02, 187500.00, 187500.00, 0.00, 0.00, 0.00
149, -119965.77, -128321.83, -113203.29, -135204.42, -187500.02, -187500.02, 187500.00, 187500.00, 0.00, 0.00, 0.00
150, -119956.42, -128313.58, -113188.27, -135122.06, -187500.02, -187500.02, 187500.00, 187500.00, 0.00, 0.00, 0.00
151, -119939.61, -128293.76, -113159.63, -134974.84, -187500.02, -187500.02, 187500.00, 187500.00, 0.00, 0.00, 0.00
152, -119939.81, -128297.96, -113125.59, -134973.86, -187500.02, -187500.02, 187500.00, 187500.00, 0.00, 0.00, 0.00
153, -119935.26, -128299.84, -113136.48, -135163.31, -187500.02, -187500.02, 187500.00, 187500.00, 0.00, 0.00, 0.00
154, -119942.25, -128300.10, -113150.54, -135134.16, -187500.02, -187500.02, 187500.00, 187500.00, 0.00, -0.00, 0.01
155, -119956.60, -128308.93, -113135.98, -135001.56, -187500.02, -187500.02, 187500.00, 187500.00, 0.00, 0.00, 0.00
156, -119980.18, -128327.80, -113124.68, -134968.70, -187500.02, -187500.02, 187500.00, 187500.00, 0.00, 0.00, 0.00
157, -119969.68, -128327.91, -113141.98, -135172.50, -187500.02, -187500.02, 187500.00, 187500.00, 0.00, 0.00, 0.00
158, -119970.59, -128328.60, -113147.30, -135169.64, -187500.02, -187500.02, 187500.00, 187500.00, 0.00, 0.00, 0.00
159, -119971.91, -128330.16, -113123.98, -135034.17, -187500.02, -187500.02, 187500.00, 187500.00, 0.00, 0.00, 0.00
160, -119952.17, -128309.54, -113083.66, -134939.25, -187500.02, -187500.02, 187500.00, 187500.00, 0.00, 0.00, 0.00
161, -119944.15, -128302.96, -113089.23, -135120.17, -187500.02, -187500.02, 187500.00, 187500.00, 0.00, 0.00, 0.00
162, -119938.61, -128300.59, -113109.30, -135175.50, -187500.02, -187500.02, 187500.00, 187500.00, 0.00, 0.00, 0.00
163, -119956.49, -128315.84, -113107.00, -135062.53, -187500.02, -187500.02, 187500.00, 187500.00, 0.00, 0.00, 0.00
164, -119974.34, -128330.44, -113088.70, -134956.09, -187500.02, -187500.02, 187500.00, 187500.00, 0.00, -0.01, 0.01
165, -119950.45, -128316.31, -113071.91, -135088.33, -187500.02, -187500.02, 187500.00, 187500.00, 0.00, 0.00, 0.00
166, -119928.64, -128292.57, -113085.61, -135176.06, -187500.02, -187500.02, 187500.00, 187500.00, 0.00, 0.00, 0.00
167, -119944.20, -128295.14, -113086.05, -135072.66, -187500.02, -187500.02, 187500.00, 187500.00, 0.00, 0.00, 0.00
168, -119968.27, -128316.82, -113081.30, -134962.13, -187500.02, -187500.02, 187500.00, 187500.00, 0.00, 0.00, 0.00
169, -119934.12, -128290.41, -113051.34, -135041.88, -187500.02, -187500.02, 187500.00, 187500.00, 0.00, 0.00, 0.00
170, -119931.12, -128289.04, -113081.30, -135187.17, -187500.02, -187500.02, 187500.00, 187500.00, 0.00, 0.00, 0.00
171, -119960.27, -128311.50, -113105.97, -135122.14, -187500.02, -187500.02, 187500.00, 187500.00, 0.00, 0.00, 0.00
172, -119931.37, -128281.98, -113057.91, -134959.83, -187500.02, -187500.02, 187500.00, 187500.00, 0.00, 0.00, 0.00
173, -119928.66, -128283.12, -113028.97, -134988.53, -187500.02, -187500.02, 187500.00, 187500.00, 0.00, 0.00, 0.00
174, -119914.34, -128280.66, -113054.78, -135168.33, -187500.02, -187500.02, 187500.00, 187500.00, 0.00, -0.01, 0.01
175, -119915.65, -128276.75, -113061.69, -135114.53, -187500.02, -187500.02, 187500.00, 187500.00, 0.00, 0.00, 0.00
176, -119925.69, -128279.72, -113054.92, -134984.44, -187500.02, -187500.02, 187500.00, 187500.00, 0.00, 0.00, 0.00
177, -119931.61, -128284.28, -113034.13, -134970.38, -187500.02, -187500.02, 187500.00, 187500.00, 0.00, 0.00, 0.00
178, -119927.41, -128286.83, -113046.67, -135155.45, -187500.02, -187500.02, 187500.00, 187500.00, 0.00, 0.00, 0.00
179, -119938.20, -128293.84, -113070.48, -135145.91, -187500.02, -187500.02, 187500.00, 187500.00, 0.00, 0.00, 0.00
180, -119931.16, -128285.33, -113049.46, -135006.92, -187500.02, -187500.02, 187500.00, 187500.00, 0.00, 0.00, 0.00
181, -119930.34, -128283.67, -113015.65, -134942.30, -187500.02, -187500.02, 187500.00, 187500.00, 0.00, 0.00, 0.00
182, -119909.33, -128272.63, -113006.57, -135112.84, -187500.02, -187500.02, 187500.00, 187500.00, 0.00, 0.00, 0.00
183, -119909.28, -128270.64, -113034.58, -135142.75, -187500.02, -187500.02, 187500.00, 187500.00, 0.00, 0.00, 0.00
184, -119921.22, -128279.38, -113035.63, -135032.83, -187500.02, -187500.02, 187500.00, 187500.00, 0.00, 0.00, 0.00
185, -119927.38, -128280.26, -113011.94, -134937.47, -187500.02, -187500.02, 187500.00, 187500.00, 0.00, -0.00, 0.01
186, -119928.08, -128287.68, -113016.80, -135107.03, -187500.02, -187500.02, 187500.00, 187500.00, 0.00, 0.00, 0.00
187, -119933.13, -128293.02, -113046.65, -135181.09, -187500.02, -187500.02, 187500.00, 187500.00, 0.00, 0.00, 0.00
188, -119939.88, -128291.07, -113048.59, -135072.61, -187500.02, -187500.02, 187500.00, 187500.00, 0.00, 0.00, 0.00
189, -119950.27, -128297.45, -113036.97, -134957.30, -187500.02, -187500.02, 187500.00, 187500.00, 0.00, 0.00, 0.00
190, -119937.38, -128300.15, -113012.25, -135071.50, -187500.02, -187500.02, 187500.00, 187500.00, 0.00, 0.00, 0.00
191, -119929.42, -128297.06, -113046.83, -135193.34, -187500.02, -187500.02, 187500.00, 187500.00, 0.00, 0.00, 0.00
192, -119942.14, -128303.95, -113057.58, -135104.58, -187500.02, -187500.02, 187500.00, 187500.00, 0.00, 0.00, 0.00
193, -119948.91, -128305.42, -113038.24, -134971.98, -187500.02, -187500.02, 187500.00, 187500.00, 0.00, 0.00, 0.00
194, -119955.75, -128315.70, -113026.64, -135046.63, -187500.02, -187500.02, 187500.00, 187500.00, 0.00, 0.00, 0.00
195, -119947.55, -128311.44, -113051.32, -135204.41, -187500.02, -187500.02, 187500.00, 187500.00, 0.01, -0.00, 0.01
196, -119948.89, -128306.32, -113056.51, -135128.63, -187500.02, -187500.02, 187500.00, 187500.00, 0.00, 0.00, 0.00
197, -119949.72, -128302.30, -113039.95, -134986.58, -187500.02, -187500.02, 187500.00, 187500.00, 0.00, 0.00, 0.00
198, -119952.47, -128310.79, -113008.78, -135003.73, -187500.02, -187500.02, 187500.00, 187500.00, 0.00, 0.00, 0.00
199, -119959.38, -128318.66, -113043.63, -135204.63, -187500.02, -187500.02, 187500.00, 187500.00, 0.00, 0.00, 0.00
200, -119953.18, -128309.83, -113054.36, -135155.50, -187500.02, -187500.02, 187500.00, 187500.00, 0.00, 0.00, 0.00
201, -119940.80, -128294.92, -113032.70, -134999.86, -187500.02, -187500.02, 187500.00, 187500.00, 0.00, 0.00, 0.00
202, -119929.29, -128285.15, -112988.60, -134954.98, -187500.02, -187500.02, 187500.00, 187500.00, 0.00, 0.00, 0.00
203, -119920.46, -128286.94, -113003.58, -135158.95, -187500.02, -187500.02, 187500.00, 187500.00, 0.00, 0.00, 0.00
204, -119933.40, -128298.67, -113036.75, -135159.00, -187500.02, -187500.02, 187500.00, 187500.00, 0.00, 0.00, 0.00
205, -119932.88, -128289.71, -113023.73, -135010.70, -187500.02, -187500.02, 187500.00, 187500.00, 0.00, -0.00, 0.01
206, -119948.38, -128302.95, -113010.21, -134943.17, -187500.02, -187500.02, 187500.00, 187500.00, 0.00, 0.00, 0.00
207, -119932.08, -128292.75, -113012.41, -135139.09, -187500.02, -187500.02, 187500.00, 187500.00, 0.00, 0.00, 0.00
208, -119929.33, -128291.52, -113040.19, -135173.98, -187500.02, -187500.02, 187500.00, 187500.00, 0.00, 0.00, 0.00
209, -119933.51, -128287.48, -113044.97, -135043.92, -187500.02, -187500.02, 187500.00, 187500.00, 0.00, 0.00, 0.00
210, -119937.13, -128289.15, -113024.92, -134927.80, -187500.02, -187500.02, 187500.00, 187500.00, 0.00, 0.00, 0.00
211, -119937.69, -128298.23, -113027.63, -135103.38, -187500.02, -187500.02, 187500.00, 187500.00, 0.00, 0.00, 0.00
212, -119923.16, -128289.29, -113055.70, -135181.95, -187500.02, -187500.02, 187500.00, 187500.00, 0.00, 0.00, 0.00
213, -119932.73, -128291.79, -113064.98, -135058.73, -187500.02, -187500.02, 187500.00, 187500.00, 0.00, 0.00, 0.00
214, -119932.91, -128288.37, -113049.60, -134919.89, -187500.02, -187500.02, 187500.00, 187500.00, 0.00, 0.00, 0.00
215, -119933.51, -128293.84, -113043.95, -135051.02, -187500.02, -187500.02, 187500.00, 187500.00, 0.00, 0.00, 0.01
216, -119927.07, -128292.82, -113085.23, -135193.22, -187500.02, -187500.02, 187500.00, 187500.00, 0.00, 0.00, 0.00
217, -119936.39, -128297.29, -113095.02, -135085.78, -187500.02, -187500.02, 187500.00, 187500.00, 0.00, 0.00, 0.00
218, -119937.91, -128296.13, -113084.67, -134928.20, -187500.02, -187500.02, 187500.00, 187500.00, 0.00, 0.00, 0.00
219, -119944.35, -128305.24, -113072.42, -135011.03, -187500.02, -187500.02, 187500.00, 187500.00, 0.00, 0.00, 0.00
220, -119924.68, -128289.73, -113102.75, -135194.72, -187500.02, -187500.02, 187500.00, 187500.00, 0.00, 0.00, 0.00
221, -119929.31, -128292.80, -113124.34, -135113.23, -187500.02, -187500.02, 187500.00, 187500.00, 0.00, 0.00, 0.00
222, -119935.01, -128297.94, -113113.14, -134948.25, -187500.02, -187500.02, 187500.00, 187500.00, 0.00, 0.00, 0.00
223, -119941.98, -128304.93, -113094.68, -134966.89, -187500.02, -187500.02, 187500.00, 187500.00, 0.00, 0.00, 0.00
224, -119924.46, -128291.79, -113118.40, -135187.59, -187500.02, -187500.02, 187500.00, 187500.00, 0.00, 0.00, 0.00
225, -119934.36, -128294.78, -113146.45, -135142.00, -187500.02, -187500.02, 187500.00, 187500.00, 0.00, 0.00, 0.01
226, -119943.16, -128299.12, -113144.82, -134980.39, -187500.02, -187500.02, 187500.00, 187500.00, 0.00, 0.00, 0.00
227, -119943.41, -128302.54, -113120.09, -134937.41, -187500.02, -187500.02, 187500.00, 187500.00, 0.00, 0.00, 0.00
228, -119930.13, -128297.71, -113129.30, -135175.81, -187500.02, -187500.02, 187500.00, 187500.00, 0.00, 0.00, 0.00
229, -119914.65, -128279.56, -113134.60, -135152.92, -187500.02, -187500.02, 187500.00, 187500.00, 0.00, 0.00, 0.00
230, -119938.90, -128289.89, -113140.13, -134999.25, -187500.02, -187500.02, 187500.00, 187500.00, 0.00, 0.00, 0.00
231, -119942.14, -128292.55, -113112.88, -134897.53, -187500.02, -187500.02, 187500.00, 187500.00, 0.00, 0.00, 0.00
232, -119924.99, -128289.11, -113104.02, -135126.48, -187500.02, -187500.02, 187500.00, 187500.00, 0.00, 0.00, 0.00
233, -119907.76, -128267.65, -113118.51, -135163.28, -187500.02, -187500.02, 187500.00, 187500.00, 0.00, 0.00, 0.00
234, -119923.52, -128274.38, -113124.84, -135016.41, -187500.02, -187500.02, 187500.00, 187500.00, 0.00, 0.00, 0.00
235, -119936.84, -128286.96, -113106.53, -134884.75, -187500.02, -187500.02, 187500.00, 187500.00, 0.01, -0.01, 0.01
236, -119935.48, -128294.83, -113101.03, -135089.38, -187500.02, -187500.02, 187500.00, 187500.00, 0.00, 0.00, 0.00
237, -119916.95, -128278.20, -113130.65, -135194.23, -187500.02, -187500.02, 187500.00, 187500.00, 0.00, 0.00, 0.00
238, -119923.41, -128284.91, -113130.27, -135050.23, -187500.02, -187500.02, 187500.00, 187500.00, 0.00, 0.00, 0.00
239, -119936.87, -128295.74, -113109.39, -134883.11, -187500.02, -187500.02, 187500.00, 187500.00, 0.00, 0.00, 0.00
240, -119931.86, -128291.09, -113096.11, -135034.39, -187500.02, -187500.02, 187500.00, 187500.00, 0.00, 0.00, 0.00
241, -119913.51, -128276.45, -113126.24, -135204.05, -187500.02, -187500.02, 187500.00, 187500.00, 0.00, 0.00, 0.00
242, -119921.55, -128280.81, -113139.74, -135087.50, -187500.02, -187500.02, 187500.00, 187500.00, 0.00, 0.00, 0.00
243, -119931.48, -128288.64, -113129.46, -134911.34, -187500.02, -187500.02, 187500.00, 187500.00, 0.00, 0.00, 0.00
244, -119930.65, -128289.87, -113098.86, -134994.27, -187500.02, -187500.02, 187500.00, 187500.00, 0.00, 0.00, 0.00
245, -119918.02, -128285.76, -113131.27, -135225.39, -187500.02, -187500.02, 187500.00, 187500.00, 0.01, -0.00, 0.01
246, -119909.41, -128276.45, -113143.37, -135128.05, -187500.02, -187500.02, 187500.00, 187500.00, 0.00, 0.00, 0.00
247, -119916.79, -128270.69, -113124.50, -134935.70, -187500.02, -187500.02, 187500.00, 187500.00, 0.00, 0.00, 0.00
248, -119916.75, -128271.67, -113093.14, -134945.67, -187500.02, -187500.02, 187500.00, 187500.00, 0.00, 0.00, 0.00
249, -119901.28, -128264.38, -113118.11, -135211.89, -187500.02, -187500.02, 187500.00, 187500.00, 0.00, 0.00, 0.00
250, -119895.78, -128256.56, -113136.23, -135151.56, -187500.02, -187500.02, 187500.00, 187500.00, 0.00, 0.00, 0.00
251, -119927.30, -128278.38, -113150.18, -134977.91, -187500.02, -187500.02, 187500.00, 187500.00, 0.00, 0.00, 0.00
252, -119934.94, -128287.70, -113128.10, -134924.53, -187500.02, -187500.02, 187500.00, 187500.00, 0.00, 0.00, 0.00
253, -119914.13, -128278.76, -113139.07, -135193.63, -187500.02, -187500.02, 187500.00, 187500.00, 0.00, 0.00, 0.00
254, -119909.77, -128273.66, -113172.24, -135189.31, -187500.02, -187500.02, 187500.00, 187500.00, 0.00, 0.00, 0.00
255, -119914.47, -128271.77, -113169.67, -135009.88, -187500.02, -187500.02, 187500.00, 187500.00, 0.01, -0.01, 0.01
0, -119929.51, -128281.02, -113154.45, -134895.70, -187500.02, -187500.02, 187500.00, 187500.00, 0.00, 0.00, 0.00
1, -119920.03, -128279.56, -113165.67, -135158.69, -187500.02, -187500.02, 187500.00, 187500.00, 0.00, 0.00, 0.00
2, -119905.91, -128268.09, -113199.00, -135215.06, -187500.02, -187500.02, 187500.00, 187500.00, 0.00, 0.00, 0.00
3, -119905.41, -128257.23, -113196.25, -135035.98, -187500.02, -187500.02, 187500.00, 187500.00, 0.00, 0.00, 0.00
4, -119904.72, -128254.62, -113167.08, -134862.73, -187500.02, -187500.02, 187500.00, 187500.00, 0.00, 0.00, 0.00
5, -119886.17, -128247.02, -113143.43, -135065.17, -187500.02, -187500.02, 187500.00, 187500.00, 0.00, 0.00, 0.00
6, -119875.84, -128239.98, -113179.40, -135191.44, -187500.02, -187500.02, 187500.00, 187500.00, 0.00, 0.00, 0.00
7, -119886.75, -128243.17, -113191.89, -135043.25, -187500.02, -187500.02, 187500.00, 187500.00, 0.00, 0.00, 0.00
8, -119903.90, -128256.74, -113178.88, -134856.20, -187500.02, -187500.02, 187500.00, 187500.00, 0.00, 0.00, 0.00
9, -119905.48, -128267.25, -113169.25, -135012.33, -187500.02, -187500.02, 187500.00, 187500.00, 0.01, -0.00, 0.01
10, -119893.48, -128254.22, -113202.06, -135207.22, -187500.02, -187500.02, 187500.00, 187500.00, 0.00, 0.00, 0.00
11, -119893.68, -128251.94, -113206.13, -135071.00, -187500.02, -187500.02, 187500.00, 187500.00, 0.00, 0.00, 0.00
12, -119911.47, -128265.37, -113199.02, -134876.13, -187500.02, -187500.02, 187500.00, 187500.00, 0.00, 0.00, 0.00
13, -119915.36, -128273.10, -113174.57, -134954.67, -187500.02, -187500.02, 187500.00, 187500.00, 0.00, 0.00, 0.00
14, -119893.32, -128261.93, -113199.11, -135202.50, -187500.02, -187500.02, 187500.00, 187500.00, 0.00, 0.00, 0.00
15, -119902.02, -128266.13, -113209.70, -135106.61, -187500.02, -187500.02, 187500.00, 187500.00, 0.00, 0.00, 0.00
16, -119916.48, -128275.34, -113200.54, -134908.58, -187500.02, -187500.02, 187500.00, 187500.00, 0.00, 0.00, 0.00
17, -119909.33, -128272.73, -113160.27, -134895.41, -187500.02, -187500.02, 187500.00, 187500.00, 0.00, 0.00, 0.00
18, -119894.33, -128266.42, -113173.96, -135174.70, -187500.02, -187500.02, 187500.00, 187500.00, 0.00, 0.00, 0.00
19, -119894.64, -128257.23, -113189.70, -135118.39, -187500.02, -187500.02, 187500.00, 187500.00, 0.01, -0.00, 0.01
20, -119912.84, -128264.74, -113182.68, -134925.16, -187500.02, -187500.02, 187500.00, 187500.00, 0.00, 0.00, 0.00
21, -119918.67, -128274.69, -113149.16, -134851.36, -187500.02, -187500.02, 187500.00, 187500.00, 0.00, 0.00, 0.00
22, -119903.41, -128267.98, -113160.38, -135140.75, -187500.02, -187500.02, 187500.00, 187500.00, 0.00, 0.00, 0.00
23, -119898.87, -128259.96, -113181.56, -135146.55, -187500.02, -187500.02, 187500.00, 187500.00, 0.00, 0.00, 0.00
24, -119914.04, -128271.59, -113177.54, -134969.38, -187500.02, -187500.02, 187500.00, 187500.00, 0.00, 0.00, 0.00
25, -119918.05, -128273.17, -113137.91, -134834.14, -187500.02, -187500.02, 187500.00, 187500.00, 0.00, 0.00, 0.00
26, -119899.31, -128268.92, -113134.60, -135103.27, -187500.02, -187500.02, 187500.00, 187500.00, 0.00, 0.00, 0.00
27, -119887.40, -128260.32, -113162.16, -135178.19, -187500.02, -187500.02, 187500.00, 187500.00, 0.00, 0.00, 0.00
28, -119904.55, -128266.35, -113154.65, -135005.06, -187500.02, -187500.02, 187500.00, 187500.00, 0.00, 0.00, 0.00
29, -119913.28, -128266.78, -113125.44, -134829.00, -187500.02, -187500.02, 187500.00, 187500.00, 0.00, 0.00, 0.01
30, -119912.45, -128272.01, -113114.64, -135047.42, -187500.02, -187500.02, 187500.00, 187500.00, 0.00, 0.00, 0.00
31, -119894.30, -128258.73, -113143.79, -135192.67, -187500.02, -187500.02, 187500.00, 187500.00, 0.00, 0.00, 0.00
32, -119900.90, -128259.24, -113142.67, -135037.52, -187500.02, -187500.02, 187500.00, 187500.00, 0.00, 0.00, 0.00
33, -119910.38, -128261.68, -113123.76, -134842.48, -187500.02, -187500.02, 187500.00, 187500.00, 0.00, 0.00, 0.00
34, -119900.14, -128259.73, -113094.03, -134981.17, -187500.02, -187500.02, 187500.00, 187500.00, 0.00, 0.00, 0.00
35, -119876.40, -128238.88, -113111.73, -135186.41, -187500.02, -187500.02, 187500.00, 187500.00, 0.00, 0.00, 0.00
36, -119884.52, -128243.48, -113119.78, -135057.84, -187500.02, -187500.02, 187500.00, 187500.00, 0.00, 0.00, 0.00
37, -119912.57, -128262.44, -113118.04, -134864.50, -187500.02, -187500.02, 187500.00, 187500.00, 0.00, 0.00, 0.00
38, -119928.75, -128283.85, -113097.61, -134935.55, -187500.02, -187500.02, 187500.00, 187500.00, 0.00, 0.00, 0.00
39, -119922.49, -128283.50, -113136.86, -135213.44, -187500.02, -187500.02, 187500.00, 187500.00, 0.00, 0.00, 0.00
40, -119932.05, -128289.22, -113161.02, -135128.73, -187500.02, -187500.02, 187500.00, 187500.00, 0.01, -0.00, 0.00
41, -119941.78, -128291.56, -113144.46, -134925.72, -187500.02, -187500.02, 187500.00, 187500.00, 0.00, 0.00, 0.00
42, -119942.52, -128293.94, -113112.36, -134904.47, -187500.02, -187500.02, 187500.00, 187500.00, 0.00, 0.00, 0.00
43, -119923.50, -128284.68, -113135.16, -135198.81, -187500.02, -187500.02, 187500.00, 187500.00, 0.00, 0.00, 0.00
44, -119911.54, -128272.09, -113147.61, -135149.02, -187500.02, -187500.02, 187500.00, 187500.00, 0.00, 0.00, 0.00
45, -119918.96, -128270.66, -113141.13, -134950.69, -187500.02, -187500.02, 187500.00, 187500.00, 0.00, 0.00, 0.00
46, -119933.06, -128284.34, -113118.98, -134867.53, -187500.02, -187500.02, 187500.00, 187500.00, 0.00, 0.00, 0.00
47, -119910.84, -128272.61, -113120.25, -135155.88, -187500.02, -187500.02, 187500.00, 187500.00, 0.00, 0.00, 0.00
48, -119895.06, -128252.85, -113137.27, -135163.88, -187500.02, -187500.02, 187500.00, 187500.00, 0.00, 0.00, 0.00
49, -119913.98, -128261.93, -113139.61, -134983.80, -187500.02, -187500.02, 187500.00, 187500.00, 0.00, 0.00, 0.00
50, -119923.52, -128273.44, -113112.16, -134837.77, -187500.02, -187500.02, 187500.00, 187500.00, 0.01, -0.00, 0.01
51, -119908.01, -128266.09, -113105.37, -135093.83, -187500.02, -187500.02, 187500.00, 187500.00, 0.00, 0.00, 0.00
52, -119893.34, -128251.65, -113136.46, -135180.73, -187500.02, -187500.02, 187500.00, 187500.00, 0.00, 0.00, 0.00
53, -119900.36, -128251.65, -113139.56, -135015.47, -187500.02, -187500.02, 187500.00, 187500.00, 0.00, 0.00, 0.00
54, -119913.84, -128262.38, -113117.15, -134831.19, -187500.02, -187500.02, 187500.00, 187500.00, 0.00, 0.00, 0.00
55, -119910.55, -128267.91, -113104.12, -135037.41, -187500.02, -187500.02, 187500.00, 187500.00, 0.00, 0.00, 0.00
56, -119884.49, -128246.80, -113129.84, -135196.89, -187500.02, -187500.02, 187500.00, 187500.00, 0.00, 0.00, 0.00
57, -119895.55, -128248.12, -113132.84, -135045.55, -187500.02, -187500.02, 187500.00, 187500.00, 0.00, 0.00, 0.00
58, -119924.70, -128269.86, -113124.05, -134854.47, -187500.02, -187500.02, 187500.00, 187500.00, 0.00, 0.00, 0.00
59, -119912.57, -128271.12, -113094.93, -134978.61, -187500.02, -187500.02, 187500.00, 187500.00, 0.00, 0.00, 0.00
60, -119914.00, -128273.91, -113136.32, -135218.02, -187500.02, -187500.02, 187500.00, 187500.00, 0.01, -0.01, 0.00
61, -119908.81, -128266.24, -113132.32, -135090.63, -187500.02, -187500.02, 187500.00, 187500.00, 0.00, 0.00, 0.00
62, -119925.53, -128275.14, -113123.41, -134889.05, -187500.02, -187500.02, 187500.00, 187500.00, 0.00, 0.00, 0.00
63, -119909.10, -128264.30, -113082.70, -134923.73, -187500.02, -187500.02, 187500.00, 187500.00, 0.00, 0.00, 0.00
64, -119881.55, -128248.74, -113097.86, -135192.95, -187500.02, -187500.02, 187500.00, 187500.00, 0.00, 0.00, 0.00
65, -119882.99, -128245.61, -113107.02, -135102.86, -187500.02, -187500.02, 187500.00, 187500.00, 0.00, 0.00, 0.00
66, -119907.41, -128262.73, -113105.68, -134905.83, -187500.02, -187500.02, 187500.00, 187500.00, 0.00, 0.00, 0.00
67, -119919.01, -128271.02, -113074.72, -134870.41, -187500.02, -187500.02, 187500.00, 187500.00, 0.00, 0.00, 0.00
68, -119898.58, -128262.15, -113087.59, -135171.19, -187500.02, -187500.02, 187500.00, 187500.00, 0.00, 0.00, 0.00
69, -119892.34, -128251.98, -113103.71, -135135.02, -187500.02, -187500.02, 187500.00, 187500.00, 0.00, 0.00, 0.00
70, -119911.70, -128264.84, -113097.86, -134940.31, -187500.02, -187500.02, 187500.00, 187500.00, 0.00, -0.00, 0.01
71, -119921.48, -128270.09, -113068.84, -134835.55, -187500.02, -187500.02, 187500.00, 187500.00, 0.00, 0.00, 0.00
72, -119891.78, -128250.38, -113070.01, -135124.67, -187500.02, -187500.02, 187500.00, 187500.00, 0.00, 0.00, 0.00
73, -119883.27, -128242.26, -113096.07, -135159.36, -187500.02, -187500.02, 187500.00, 187500.00, 0.00, 0.00, 0.00
74, -119897.03, -128245.16, -113093.56, -134977.91, -187500.02, -187500.02, 187500.00, 187500.00, 0.00, 0.00, 0.00
75, -119908.77, -128261.50, -113068.04, -134824.00, -187500.02, -187500.02, 187500.00, 187500.00, 0.00, 0.00, 0.00
76, -119900.43, -128259.83, -113068.66, -135085.88, -187500.02, -187500.02, 187500.00, 187500.00, 0.00, 0.00, 0.00
77, -119882.13, -128244.38, -113093.54, -135186.70, -187500.02, -187500.02, 187500.00, 187500.00, 0.00, 0.00, 0.00
78, -119893.68, -128250.91, -113097.19, -135020.31, -187500.02, -187500.02, 187500.00, 187500.00, 0.00, 0.00, 0.00
79, -119912.41, -128262.69, -113085.95, -134835.19, -187500.02, -187500.02, 187500.00, 187500.00, 0.00, 0.00, 0.00
80, -119898.76, -128256.00, -113071.68, -135022.84, -187500.02, -187500.02, 187500.00, 187500.00, 0.01, 0.00, 0.01
81, -119880.38, -128239.15, -113105.50, -135203.66, -187500.02, -187500.02, 187500.00, 187500.00, 0.00, 0.00, 0.00
82, -119892.77, -128243.78, -113114.27, -135057.44, -187500.02, -187500.02, 187500.00, 187500.00, 0.00, 0.00, 0.00
83, -119914.96, -128257.99, -113114.44, -134858.89, -187500.02, -187500.02, 187500.00, 187500.00, 0.00, 0.00, 0.00
84, -119905.86, -128260.54, -113086.59, -134965.89, -187500.02, -187500.02, 187500.00, 187500.00, 0.00, 0.00, 0.00
85, -119882.19, -128243.55, -113111.09, -135206.30, -187500.02, -187500.02, 187500.00, 187500.00, 0.00, 0.00, 0.00
86, -119881.05, -128233.98, -113116.43, -135083.45, -187500.02, -187500.02, 187500.00, 187500.00, 0.00, 0.00, 0.00
87, -119899.88, -128245.45, -113111.34, -134876.48, -187500.02, -187500.02, 187500.00, 187500.00, 0.00, 0.00, 0.00
88, -119902.94, -128255.83, -113094.03, -134909.45, -187500.02, -187500.02, 187500.00, 187500.00, 0.00, 0.00, 0.00
89, -119889.14, -128248.65, -113127.43, -135203.81, -187500.02, -187500.02, 187500.00, 187500.00, 0.00, 0.00, 0.00
90, -119873.67, -128229.80, -113136.91, -135119.53, -187500.02, -187500.02, 187500.00, 187500.00, 0.01, -0.00, 0.01
91, -119886.28, -128234.01, -113128.79, -134908.39, -187500.02, -187500.02, 187500.00, 187500.00, 0.00, 0.00, 0.00
92, -119898.59, -128247.71, -113103.34, -134856.34, -187500.02, -187500.02, 187500.00, 187500.00, 0.00, 0.00, 0.00
93, -119872.31, -128229.96, -113110.82, -135151.45, -187500.02, -187500.02, 187500.00, 187500.00, 0.00, 0.00, 0.00
94, -119848.02, -128201.38, -113119.88, -135116.48, -187500.02, -187500.02, 187500.00, 187500.00, 0.00, 0.00, 0.00
95, -119857.76, -128205.98, -113111.13, -134916.38, -187500.02, -187500.02, 187500.00, 187500.00, 0.00, 0.00, 0.00
96, -119882.17, -128227.05, -113090.91, -134804.73, -187500.02, -187500.02, 187500.00, 187500.00, 0.00, 0.00, 0.00
97, -119879.69, -128231.30, -113099.35, -135098.44, -187500.02, -187500.02, 187500.00, 187500.00, 0.00, 0.00, 0.00
98, -119869.98, -128224.04, -113129.26, -135150.63, -187500.02, -187500.02, 187500.00, 187500.00, 0.00, 0.00, 0.00
99, -119889.30, -128232.42, -113131.80, -134975.72, -187500.02, -187500.02, 187500.00, 187500.00, 0.00, 0.00, 0.00
100, -119897.48, -128241.38, -113110.28, -134814.66, -187500.02, -187500.02, 187500.00, 187500.00, 0.00, 0.00, 0.00
101, -119886.91, -128239.06, -113097.19, -135054.78, -187500.02, -187500.02, 187500.00, 187500.00, 0.00, 0.00, 0.00
102, -119867.39, -128223.88, -113128.81, -135179.30, -187500.02, -187500.02, 187500.00, 187500.00, 0.00, 0.00, 0.00
103, -119881.66, -128231.77, -113132.55, -135017.08, -187500.02, -187500.02, 187500.00, 187500.00, 0.00, 0.00, 0.00
104, -119897.84, -128239.98, -113113.57, -134824.11, -187500.02, -187500.02, 187500.00, 187500.00, 0.00, 0.00, 0.00
105, -119896.54, -128245.74, -113092.45, -134993.80, -187500.02, -187500.02, 187500.00, 187500.00, 0.00, 0.00, 0.00
106, -119883.98, -128235.35, -113132.37, -135199.50, -187500.02, -187500.02, 187500.00, 187500.00, 0.00, 0.00, 0.00
107, -119896.97, -128243.24, -113134.78, -135061.59, -187500.02, -187500.02, 187500.00, 187500.00, 0.00, 0.00, 0.00
108, -119912.63, -128254.75, -113123.38, -134860.00, -187500.02, -187500.02, 187500.00, 187500.00, 0.00, 0.00, 0.00
109, -119907.29, -128255.22, -113093.72, -134950.70, -187500.02, -187500.02, 187500.00, 187500.00, 0.00, 0.00, 0.00
110, -119885.14, -128241.03, -113117.50, -135203.48, -187500.02, -187500.02, 187500.00, 187500.00, 0.00, -0.00, 0.01
111, -119881.25, -128236.70, -113119.45, -135087.39, -187500.02, -187500.02, 187500.00, 187500.00, 0.00, 0.00, 0.00
112, -119894.55, -128243.76, -113107.84, -134877.59, -187500.02, -187500.02, 187500.00, 187500.00, 0.00, 0.00, 0.00
113, -119910.96, -128261.50, -113083.77, -134890.45, -187500.02, -187500.02, 187500.00, 187500.00, 0.00, 0.00, 0.00
114, -119889.55, -128249.59, -113102.82, -135183.06, -187500.02, -187500.02, 187500.00, 187500.00, 0.00, 0.00, 0.00
115, -119886.04, -128242.57, -113119.27, -135119.23, -187500.02, -187500.02, 187500.00, 187500.00, 0.00, 0.00, 0.00
116, -119902.84, -128248.52, -113107.42, -134917.34, -187500.02, -187500.02, 187500.00, 187500.00, 0.00, 0.00, 0.00
117, -119914.80, -128262.04, -113081.63, -134857.19, -187500.02, -187500.02, 187500.00, 187500.00, 0.00, 0.00, 0.00
118, -119888.20, -128240.16, -113087.51, -135150.64, -187500.02, -187500.02, 187500.00, 187500.00, 0.00, 0.00, 0.00
119, -119880.47, -128228.09, -113109.37, -135144.70, -187500.02, -187500.02, 187500.00, 187500.00, 0.00, 0.00, 0.00
120, -119888.59, -128231.22, -113097.41, -134948.39, -187500.02, -187500.02, 187500.00, 187500.00, 0.01, -0.00, 0.01
121, -119899.09, -128241.99, -113067.19, -134818.31, -187500.02, -187500.02, 187500.00, 187500.00, 0.00, 0.00, 0.00
122, -119887.96, -128240.42, -113066.56, -135094.39, -187500.02, -187500.02, 187500.00, 187500.00, 0.00, 0.00, 0.00
123, -119870.77, -128224.82, -113092.91, -135158.78, -187500.02, -187500.02, 187500.00, 187500.00, 0.00, 0.00, 0.00
124, -119879.46, -128225.96, -113087.41, -134978.98, -187500.02, -187500.02, 187500.00, 187500.00, 0.00, 0.00, 0.00
125, -119884.56, -128235.35, -113057.09, -134802.72, -187500.02, -187500.02, 187500.00, 187500.00, 0.00, 0.00, 0.00
126, -119866.86, -128223.15, -113037.87, -135020.84, -187500.02, -187500.02, 187500.00, 187500.00, 0.00, 0.00, 0.00
127, -119838.05, -128193.76, -113060.53, -135151.20, -187500.02, -187500.02, 187500.00, 187500.00, 0.00, 0.00, 0.00
128, -119849.96, -128197.11, -113066.20, -134994.25, -187500.02, -187500.02, 187500.00, 187500.00, 0.00, 0.00, 0.00
129, -119879.24, -128219.30, -113060.30, -134806.55, -187500.02, -187500.02, 187500.00, 187500.00, 0.00, 0.00, 0.00
130, -119883.98, -128228.53, -113052.93, -134970.98, -187500.02, -187500.02, 187500.00, 187500.00, 0.01, -0.00, 0.01
131, -119861.77, -128212.64, -113087.09, -135180.69, -187500.02, -187500.02, 187500.00, 187500.00, 0.00, 0.00, 0.00
132, -119867.46, -128213.06, -113091.35, -135045.53, -187500.02, -187500.02, 187500.00, 187500.00, 0.00, 0.00, 0.00
133, -119883.45, -128224.29, -113080.24, -134843.20, -187500.02, -187500.02, 187500.00, 187500.00, 0.00, 0.00, 0.00
134, -119885.88, -128229.00, -113055.01, -134916.02, -187500.02, -187500.02, 187500.00, 187500.00, 0.00, 0.00, 0.00
135, -119868.52, -128215.50, -113085.05, -135179.02, -187500.02, -187500.02, 187500.00, 187500.00, 0.00, 0.00, 0.00
136, -119869.09, -128217.41, -113093.25, -135077.38, -187500.02, -187500.02, 187500.00, 187500.00, 0.00, 0.00, 0.00
137, -119886.64, -128227.02, -113085.38, -134876.20, -187500.02, -187500.02, 187500.00, 187500.00, 0.00, 0.00, 0.00
138, -119895.45, -128238.01, -113058.09, -134869.89, -187500.02, -187500.02, 187500.00, 187500.00, 0.00, 0.00, 0.00
139, -119877.07, -128228.87, -113075.03, -135163.59, -187500.02, -187500.02, 187500.00, 187500.00, 0.00, 0.00, 0.00
140, -119868.36, -128215.28, -113095.95, -135118.64, -187500.02, -187500.02, 187500.00, 187500.00, 0.01, 0.00, 0.01
141, -119876.00, -128217.38, -113089.20, -134922.33, -187500.02, -187500.02, 187500.00, 187500.00, 0.00, 0.00, 0.00
142, -119890.20, -128232.71, -113055.97, -134835.23, -187500.02, -187500.02, 187500.00, 187500.00, 0.00, 0.00, 0.00
143, -119874.86, -128228.76, -113063.70, -135128.31, -187500.02, -187500.02, 187500.00, 187500.00, 0.00, 0.00, 0.00
144, -119874.57, -128223.35, -113093.36, -135143.02, -187500.02, -187500.02, 187500.00, 187500.00, 0.00, 0.00, 0.00
145, -119891.49, -128232.87, -113090.86, -134961.53, -187500.02, -187500.02, 187500.00, 187500.00, 0.00, 0.00, 0.00
146, -119899.24, -128237.92, -113058.95, -134815.45, -187500.02, -187500.02, 187500.00, 187500.00, 0.00, 0.00, 0.00
147, -119887.65, -128233.34, -113057.94, -135080.80, -187500.02, -187500.02, 187500.00, 187500.00, 0.00, 0.00, 0.00
148, -119861.36, -128216.33, -113084.13, -135161.48, -187500.02, -187500.02, 187500.00, 187500.00, 0.00, 0.00, 0.00
149, -119869.48, -128215.10, -113080.22, -134990.83, -187500.02, -187500.02, 187500.00, 187500.00, 0.00, 0.00, 0.00
150, -119894.59, -128233.38, -113063.32, -134823.19, -187500.02, -187500.02, 187500.00, 187500.00, 0.00, 0.00, 0.00
151, -119884.05, -128230.34, -113048.84, -135030.06, -187500.02, -187500.02, 187500.00, 187500.00, 0.01, -0.00, 0.01
152, -119865.56, -128216.55, -113078.08, -135181.09, -187500.02, -187500.02, 187500.00, 187500.00, 0.00, 0.00, 0.00
153, -119878.84, -128223.84, -113086.08, -135032.05, -187500.02, -187500.02, 187500.00, 187500.00, 0.00, 0.00, 0.00
154, -119889.66, -128229.61, -113067.73, -134834.59, -187500.02, -187500.02, 187500.00, 187500.00, 0.00, 0.00, 0.00
155, -119888.85, -128237.59, -113046.72, -134965.58, -187500.02, -187500.02, 187500.00, 187500.00, 0.00, 0.00, 0.00
156, -119866.95, -128217.60, -113082.08, -135186.86, -187500.02, -187500.02, 187500.00, 187500.00, 0.00, 0.00, 0.00
157, -119847.81, -128192.93, -113065.55, -135040.50, -187500.02, -187500.02, 187500.00, 187500.00, 0.00, 0.00, 0.00
158, -119849.20, -128193.27, -113040.73, -134824.31, -187500.02, -187500.02, 187500.00, 187500.00, 0.00, 0.00, 0.00
159, -119851.32, -128196.95, -113011.66, -134872.39, -187500.02, -187500.02, 187500.00, 187500.00, 0.00, 0.00, 0.00
160, -119843.21, -128199.43, -113048.86, -135149.61, -187500.02, -187500.02, 187500.00, 187500.00, 0.00, 0.00, 0.00
161, -119841.80, -128192.63, -113061.47, -135058.42, -187500.02, -187500.02, 187500.00, 187500.00, 0.01, -0.00, 0.01
162, -119856.02, -128199.79, -113055.55, -134858.63, -187500.02, -187500.02, 187500.00, 187500.00, 0.00, 0.00, 0.00
163, -119864.63, -128215.93, -113037.17, -134841.23, -187500.02, -187500.02, 187500.00, 187500.00, 0.00, 0.00, 0.00
164, -119841.60, -128201.27, -113058.59, -135143.16, -187500.02, -187500.02, 187500.00, 187500.00, 0.00, 0.00, 0.00
165, -119839.97, -128198.07, -113080.20, -135107.11, -187500.02, -187500.02, 187500.00, 187500.00, 0.00, 0.00, 0.00
166, -119866.23, -128215.46, -113083.53, -134921.58, -187500.02, -187500.02, 187500.00, 187500.00, 0.00, 0.00, 0.00
167, -119868.29, -128219.13, -113054.13, -134824.64, -187500.02, -187500.02, 187500.00, 187500.00, 0.00, 0.00, 0.00
168, -119848.33, -128207.05, -113064.15, -135108.72, -187500.02, -187500.02, 187500.00, 187500.00, 0.00, 0.00, 0.00
169, -119851.03, -128207.08, -113096.67, -135141.45, -187500.02, -187500.02, 187500.00, 187500.00, 0.00, 0.00, 0.00
170, -119862.39, -128212.20, -113091.44, -134962.53, -187500.02, -187500.02, 187500.00, 187500.00, 0.00, 0.00, 0.00
171, -119869.80, -128213.94, -113054.80, -134809.69, -187500.02, -187500.02, 187500.00, 187500.00, 0.01, -0.00, 0.01
172, -119859.84, -128215.50, -113050.91, -135066.80, -187500.02, -187500.02, 187500.00, 187500.00, 0.00, 0.00, 0.00
173, -119845.98, -128204.08, -113087.77, -135172.86, -187500.02, -187500.02, 187500.00, 187500.00, 0.00, 0.00, 0.00
174, -119854.63, -128205.45, -113085.65, -135004.91, -187500.02, -187500.02, 187500.00, 187500.00, 0.00, 0.00, 0.00
175, -119875.58, -128220.13, -113071.84, -134827.86, -187500.02, -187500.02, 187500.00, 187500.00, 0.00, 0.00, 0.00
176, -119873.27, -128220.17, -113062.18, -135026.13, -187500.02, -187500.02, 187500.00, 187500.00, 0.00, 0.00, 0.00
177, -119850.54, -128206.00, -113088.31, -135189.56, -187500.02, -187500.02, 187500.00, 187500.00, 0.00, 0.00, 0.00
178, -119860.31, -128205.42, -113089.74, -135039.98, -187500.02, -187500.02, 187500.00, 187500.00, 0.00, 0.00, 0.00
179, -119879.82, -128220.80, -113073.96, -134839.11, -187500.02, -187500.02, 187500.00, 187500.00, 0.00, 0.00, 0.00
180, -119880.85, -128232.67, -113057.45, -134959.11, -187500.02, -187500.02, 187500.00, 187500.00, 0.00, 0.00, 0.00
181, -119862.32, -128220.17, -113092.20, -135202.77, -187500.02, -187500.02, 187500.00, 187500.00, 0.01, 0.00, 0.01
182, -119868.78, -128214.50, -113087.09, -135076.22, -187500.02, -187500.02, 187500.00, 187500.00, 0.00, 0.00, 0.00
183, -119884.52, -128224.89, -113078.12, -134871.00, -187500.02, -187500.02, 187500.00, 187500.00, 0.00, 0.00, 0.00
184, -119889.68, -128233.74, -113050.11, -134909.45, -187500.02, -187500.02, 187500.00, 187500.00, 0.00, 0.00, 0.00
185, -119868.20, -128220.20, -113077.45, -135192.78, -187500.02, -187500.02, 187500.00, 187500.00, 0.00, 0.00, 0.00
186, -119858.37, -128209.02, -113089.01, -135114.02, -187500.02, -187500.02, 187500.00, 187500.00, 0.00, 0.00, 0.00
187, -119861.09, -128206.90, -113070.19, -134905.95, -187500.02, -187500.02, 187500.00, 187500.00, 0.00, 0.00, 0.00
188, -119850.43, -128197.40, -113020.23, -134843.36, -187500.02, -187500.02, 187500.00, 187500.00, 0.00, 0.00, 0.00
189, -119833.87, -128185.04, -113036.12, -135135.56, -187500.02, -187500.02, 187500.00, 187500.00, 0.00, 0.00, 0.00
190, -119837.64, -128184.59, -113067.32, -135114.41, -187500.02, -187500.02, 187500.00, 187500.00, 0.00, 0.00, 0.00
191, -119854.56, -128199.59, -113070.12, -134927.58, -187500.02, -187500.02, 187500.00, 187500.00, 0.01, 0.00, 0.01
192, -119861.59, -128208.02, -113043.95, -134818.08, -187500.02, -187500.02, 187500.00, 187500.00, 0.00, 0.00, 0.00
193, -119859.08, -128206.96, -113059.23, -135112.11, -187500.02, -187500.02, 187500.00, 187500.00, 0.00, 0.00, 0.00
194, -119851.52, -128200.10, -113090.01, -135158.69, -187500.02, -187500.02, 187500.00, 187500.00, 0.00, 0.00, 0.00
195, -119870.99, -128207.92, -113092.94, -134982.47, -187500.02, -187500.02, 187500.00, 187500.00, 0.00, 0.00, 0.00
196, -119893.88, -128227.95, -113072.89, -134826.17, -187500.02, -187500.02, 187500.00, 187500.00, 0.00, 0.00, 0.00
197, -119884.96, -128227.66, -113067.75, -135070.61, -187500.02, -187500.02, 187500.00, 187500.00, 0.00, 0.00, 0.00
198, -119881.81, -128225.29, -113110.71, -135194.44, -187500.02, -187500.02, 187500.00, 187500.00, 0.00, 0.00, 0.00
199, -119889.86, -128228.73, -113112.43, -135032.11, -187500.02, -187500.02, 187500.00, 187500.00, 0.00, 0.00, 0.00
200, -119896.14, -128234.45, -113086.05, -134837.25, -187500.02, -187500.02, 187500.00, 187500.00, 0.00, 0.00, 0.00
201, -119896.01, -128239.13, -113076.06, -135018.20, -187500.02, -187500.02, 187500.00, 187500.00, 0.01, -0.01, 0.01
202, -119888.47, -128231.75, -113109.55, -135213.50, -187500.02, -187500.02, 187500.00, 187500.00, 0.00, 0.00, 0.00
203, -119887.55, -128227.26, -113106.17, -135062.63, -187500.02, -187500.02, 187500.00, 187500.00, 0.00, 0.00, 0.00
204, -119901.50, -128235.82, -113096.07, -134860.52, -187500.02, -187500.02, 187500.00, 187500.00, 0.00, 0.00, 0.00
205, -119902.55, -128237.81, -113066.27, -134957.34, -187500.02, -187500.02, 187500.00, 187500.00, 0.00, 0.00, 0.00
206, -119884.78, -128229.59, -113097.55, -135207.80, -187500.02, -187500.02, 187500.00, 187500.00, 0.00, 0.00, 0.00
207, -119888.38, -128225.18, -113108.02, -135093.14, -187500.02, -187500.02, 187500.00, 187500.00, 0.00, 0.00, 0.00
208, -119892.34, -128230.14, -113093.14, -134883.08, -187500.02, -187500.02, 187500.00, 187500.00, 0.00, 0.00, 0.00
209, -119893.61, -128231.64, -113057.40, -134891.19, -187500.02, -187500.02, 187500.00, 187500.00, 0.00, 0.00, 0.00
210, -119875.82, -128219.39, -113082.70, -135178.05, -187500.02, -187500.02, 187500.00, 187500.00, 0.00, 0.00, 0.00
211, -119877.63, -128222.03, -113109.81, -135117.92, -187500.02, -187500.02, 187500.00, 187500.00, 0.01, -0.00, 0.01
212, -119895.67, -128228.49, -113099.42, -134915.84, -187500.02, -187500.02, 187500.00, 187500.00, 0.00, 0.00, 0.00
213, -119902.15, -128236.00, -113069.05, -134855.22, -187500.02, -187500.02, 187500.00, 187500.00, 0.00, 0.00, 0.00
214, -119880.58, -128220.84, -113078.79, -135151.42, -187500.02, -187500.02, 187500.00, 187500.00, 0.00, 0.00, 0.00
215, -119869.43, -128205.11, -113097.03, -135133.66, -187500.02, -187500.02, 187500.00, 187500.00, 0.00, 0.00, 0.00
216, -119891.45, -128218.16, -113093.77, -134945.33, -187500.02, -187500.02, 187500.00, 187500.00, 0.00, 0.00, 0.00
217, -119905.15, -128236.18, -113069.31, -134824.47, -187500.02, -187500.02, 187500.00, 187500.00, 0.00, 0.00, 0.00
218, -119887.76, -128230.91, -113072.73, -135106.97, -187500.02, -187500.02, 187500.00, 187500.00, 0.00, 0.00, 0.00
219, -119874.30, -128217.29, -113095.51, -135159.45, -187500.02, -187500.02, 187500.00, 187500.00, 0.00, 0.00, 0.00
220, -119882.15, -128218.61, -113091.48, -134978.53, -187500.02, -187500.02, 187500.00, 187500.00, 0.00, 0.00, 0.00
221, -119901.41, -128228.55, -113068.55, -134808.94, -187500.02, -187500.02, 187500.00, 187500.00, 0.01, -0.00, 0.01
222, -119883.66, -128217.11, -113057.49, -135039.47, -187500.02, -187500.02, 187500.00, 187500.00, 0.00, 0.00, 0.00
223, -119865.74, -128205.96, -113087.59, -135170.66, -187500.02, -187500.02, 187500.00, 187500.00, 0.00, 0.00, 0.00
224, -119891.22, -128225.67, -113099.24, -135023.17, -187500.02, -187500.02, 187500.00, 187500.00, 0.00, 0.00, 0.00
225, -119908.63, -128236.02, -113085.00, -134834.97, -187500.02, -187500.02, 187500.00, 187500.00, 0.00, 0.00, 0.00
226, -119909.48, -128242.93, -113070.61, -135001.53, -187500.02, -187500.02, 187500.00, 187500.00, 0.00, 0.00, 0.00
227, -119892.32, -128229.09, -113104.78, -135206.86, -187500.02, -187500.02, 187500.00, 187500.00, 0.00, 0.00, 0.00
228, -119896.56, -128228.49, -113108.80, -135071.05, -187500.02, -187500.02, 187500.00, 187500.00, 0.00, 0.00, 0.00
229, -119903.56, -128231.02, -113090.37, -134860.63, -187500.02, -187500.02, 187500.00, 187500.00, 0.00, 0.00, 0.00
230, -119908.99, -128243.06, -113067.55, -134943.00, -187500.02, -187500.02, 187500.00, 187500.00, 0.00, 0.00, 0.00
231, -119891.91, -128233.02, -113104.05, -135209.92, -187500.02, -187500.02, 187500.00, 187500.00, 0.01, -0.00, 0.00
232, -119882.37, -128218.70, -113101.86, -135095.75, -187500.02, -187500.02, 187500.00, 187500.00, 0.00, 0.00, 0.00
233, -119894.80, -128224.22, -113080.87, -134883.25, -187500.02, -187500.02, 187500.00, 187500.00, 0.00, 0.00, 0.00
234, -119906.64, -128236.94, -113051.52, -134883.78, -187500.02, -187500.02, 187500.00, 187500.00, 0.00, 0.00, 0.00
235, -119894.62, -128231.53, -113083.06, -135185.06, -187500.02, -187500.02, 187500.00, 187500.00, 0.00, 0.00, 0.00
236, -119886.95, -128221.78, -113094.93, -135124.84, -187500.02, -187500.02, 187500.00, 187500.00, 0.00, 0.00, 0.00
237, -119898.84, -128226.43, -113085.34, -134926.22, -187500.02, -187500.02, 187500.00, 187500.00, 0.00, 0.00, 0.00
238, -119900.95, -128229.27, -113052.30, -134845.77, -187500.02, -187500.02, 187500.00, 187500.00, 0.00, 0.00, 0.00
239, -119892.32, -128228.35, -113075.59, -135154.56, -187500.02, -187500.02, 187500.00, 187500.00, 0.00, 0.00, 0.00
240, -119882.98, -128215.37, -113102.69, -135159.91, -187500.02, -187500.02, 187500.00, 187500.00, 0.00, 0.00, 0.00
241, -119891.34, -128222.66, -113092.24, -134969.94, -187500.02, -187500.02, 187500.00, 187500.00, 0.01, -0.00, 0.00
242, -119896.74, -128231.66, -113065.78, -134834.69, -187500.02, -187500.02, 187500.00, 187500.00, 0.00, 0.00, 0.00
243, -119881.38, -128224.47, -113068.11, -135107.66, -187500.02, -187500.02, 187500.00, 187500.00, 0.00, 0.00, 0.00
244, -119869.56, -128211.68, -113094.15, -135181.36, -187500.02, -187500.02, 187500.00, 187500.00, 0.00, 0.00, 0.00
245, -119882.91, -128217.80, -113089.63, -135004.73, -187500.02, -187500.02, 187500.00, 187500.00, 0.00, 0.00, 0.00
246, -119890.82, -128222.21, -113060.17, -134825.45, -187500.02, -187500.02, 187500.00, 187500.00, 0.00, 0.00, 0.00
247, -119886.62, -128222.07, -113052.80, -135045.45, -187500.02, -187500.02, 187500.00, 187500.00, 0.00, 0.00, 0.00
248, -119867.62, -128211.55, -113090.10, -135195.69, -187500.02, -187500.02, 187500.00, 187500.00, 0.00, 0.00, 0.00
249, -119867.73, -128205.66, -113084.94, -135031.06, -187500.02, -187500.02, 187500.00, 187500.00, 0.00, 0.00, 0.00
250, -119888.16, -128221.98, -113068.80, -134833.66, -187500.02, -187500.02, 187500.00, 187500.00, 0.00, 0.00, 0.00
251, -119881.61, -128221.20, -113047.48, -134976.61, -187500.02, -187500.02, 187500.00, 187500.00, 0.01, 0.00, 0.00
252, -119862.37, -128202.80, -113080.11, -135193.50, -187500.02, -187500.02, 187500.00, 187500.00, 0.00, 0.00, 0.00
253, -119843.19, -128181.41, -113066.83, -135044.97, -187500.02, -187500.02, 187500.00, 187500.00, 0.00, 0.00, 0.00
254, -119848.40, -128181.08, -113044.55, -134825.72, -187500.02, -187500.02, 187500.00, 187500.00, 0.00, 0.00, 0.00
255, -119865.16, -128204.39, -113029.13, -134896.27, -187500.02, -187500.02, 187500.00, 187500.00, 0.00, 0.00, 0.00
0, -119852.22, -128199.34, -113063.95, -135178.34, -187500.02, -187500.02, 187500.00, 187500.00, 0.00, 0.00, 0.00
1, -119846.52, -128188.97, -113069.47, -135080.13, -187500.02, -187500.02, 187500.00, 187500.00, 0.00, 0.00, 0.00
2, -119864.00, -128198.00, -113059.97, -134874.44, -187500.02, -187500.02, 187500.00, 187500.00, 0.00, 0.00, 0.00
3, -119879.27, -128215.21, -113037.59, -134862.17, -187500.02, -187500.02, 187500.00, 187500.00, 0.00, 0.00, 0.00
4, -119864.22, -128204.59, -113057.42, -135160.70, -187500.02, -187500.02, 187500.00, 187500.00, 0.00, 0.00, 0.00
5, -119855.01, -128193.22, -113075.39, -135113.70, -187500.02, -187500.02, 187500.00, 187500.00, 0.01, 0.00, 0.00
6, -119871.41, -128200.75, -113067.62, -134913.94, -187500.02, -187500.02, 187500.00, 187500.00, 0.00, 0.00, 0.00
7, -119889.30, -128222.32, -113044.75, -134827.95, -187500.02, -187500.02, 187500.00, 187500.00, 0.00, 0.00, 0.00
8, -119866.12, -128212.24, -113055.99, -135123.02, -187500.02, -187500.02, 187500.00, 187500.00, 0.00, 0.00, 0.00
9, -119861.47, -128203.73, -113080.87, -135143.06, -187500.02, -187500.02, 187500.00, 187500.00, 0.00, 0.00, 0.00
10, -119883.11, -128214.61, -113079.62, -134962.67, -187500.02, -187500.02, 187500.00, 187500.00, 0.00, 0.00, 0.00
11, -119899.80, -128227.86, -113054.43, -134821.47, -187500.02, -187500.02, 187500.00, 187500.00, 0.00, 0.00, 0.00
12, -119889.88, -128223.33, -113063.26, -135092.67, -187500.02, -187500.02, 187500.00, 187500.00, 0.00, 0.00, 0.00
13, -119875.02, -128210.41, -113091.59, -135186.83, -187500.02, -187500.02, 187500.00, 187500.00, 0.00, 0.00, 0.00
14, -119883.33, -128210.54, -113089.01, -135010.36, -187500.02, -187500.02, 187500.00, 187500.00, 0.00, 0.00, 0.00
15, -119898.98, -128226.19, -113064.53, -134826.50, -187500.02, -187500.02, 187500.00, 187500.00, 0.00, 0.00, 0.00
16, -119891.36, -128227.84, -113053.98, -135032.66, -187500.02, -187500.02, 187500.00, 187500.00, 0.01, -0.00, 0.00
17, -119871.66, -128211.23, -113087.02, -135199.95, -187500.02, -187500.02, 187500.00, 187500.00, 0.00, 0.00, 0.00
18, -119869.72, -128202.67, -113079.95, -135036.20, -187500.02, -187500.02, 187500.00, 187500.00, 0.00, 0.00, 0.00
19, -119891.09, -128214.43, -113070.30, -134834.69, -187500.02, -187500.02, 187500.00, 187500.00, 0.00, 0.00, 0.00
20, -119892.56, -128219.86, -113053.17, -134963.92, -187500.02, -187500.02, 187500.00, 187500.00, 0.00, 0.00, 0.00
21, -119871.95, -128207.05, -113082.37, -135197.06, -187500.02, -187500.02, 187500.00, 187500.00, 0.00, 0.00, 0.00
22, -119884.18, -128212.55, -113094.88, -135077.80, -187500.02, -187500.02, 187500.00, 187500.00, 0.00, 0.00, 0.00
23, -119892.79, -128215.73, -113078.97, -134869.55, -187500.02, -187500.02, 187500.00, 187500.00, 0.00, 0.00, 0.00
24, -119884.25, -128214.16, -113046.07, -134907.06, -187500.02, -187500.02, 187500.00, 187500.00, 0.00, 0.00, 0.00
25, -119860.60, -128193.20, -113072.91, -135182.98, -187500.02, -187500.02, 187500.00, 187500.00, 0.00, 0.00, 0.00
26, -119867.53, -128197.66, -113096.78, -135103.58, -187500.02, -187500.02, 187500.00, 187500.00, 0.01, 0.00, 0.00
27, -119870.32, -128193.11, -113081.88, -134892.11, -187500.02, -187500.02, 187500.00, 187500.00, 0.00, 0.00, 0.00
28, -119870.30, -128197.11, -113046.65, -134848.97, -187500.02, -187500.02, 187500.00, 187500.00, 0.00, 0.00, 0.00
29, -119854.68, -128190.09, -113059.91, -135146.22, -187500.02, -187500.02, 187500.00, 187500.00, 0.00, 0.00, 0.00
30, -119857.67, -128185.95, -113090.01, -135118.44, -187500.02, -187500.02, 187500.00, 187500.00, 0.00, 0.00, 0.00
31, -119876.23, -128199.92, -113095.30, -134932.94, -187500.02, -187500.02, 187500.00, 187500.00, 0.00, 0.00, 0.00
32, -119887.65, -128215.05, -113065.49, -134829.34, -187500.02, -187500.02, 187500.00, 187500.00, 0.00, 0.00, 0.00
33, -119876.24, -128211.13, -113077.27, -135123.05, -187500.02, -187500.02, 187500.00, 187500.00, 0.00, 0.00, 0.00
34, -119869.25, -128202.38, -113104.65, -135159.36, -187500.02, -187500.02, 187500.00, 187500.00, 0.00, 0.00, 0.00
35, -119891.45, -128218.37, -113112.66, -134987.80, -187500.02, -187500.02, 187500.00, 187500.00, 0.00, 0.00, 0.00
36, -119901.13, -128224.73, -113086.99, -134832.73, -187500.02, -187500.02, 187500.00, 187500.00, 0.01, -0.00, 0.00
37, -119891.02, -128226.68, -113082.19, -135085.59, -187500.02, -187500.02, 187500.00, 187500.00, 0.00, 0.00, 0.00
38, -119871.82, -128207.52, -113109.05, -135191.81, -187500.02, -187500.02, 187500.00, 187500.00, 0.00, 0.00, 0.00
39, -119883.40, -128211.10, -113104.95, -135019.98, -187500.02, -187500.02, 187500.00, 187500.00, 0.00, 0.00, 0.00
40, -119896.52, -128219.50, -113081.31, -134827.55, -187500.02, -187500.02, 187500.00, 187500.00, 0.00, 0.00, 0.00
41, -119894.57, -128227.26, -113071.37, -135019.44, -187500.02, -187500.02, 187500.00, 187500.00, 0.00, 0.00, 0.00
42, -119873.41, -128211.41, -113100.98, -135203.84, -187500.02, -187500.02, 187500.00, 187500.00, 0.00, 0.00, 0.00
43, -119878.10, -128210.59, -113099.31, -135051.63, -187500.02, -187500.02, 187500.00, 187500.00, 0.00, 0.00, 0.00
44, -119901.28, -128226.97, -113091.89, -134850.28, -187500.02, -187500.02, 187500.00, 187500.00, 0.00, 0.00, 0.00
45, -119905.08, -128237.30, -113072.82, -134964.45, -187500.02, -187500.02, 187500.00, 187500.00, 0.00, 0.00, 0.00
46, -119887.84, -128224.63, -113102.26, -135213.55, -187500.02, -187500.02, 187500.00, 187500.00, 0.01, -0.01, 0.00
47, -119885.79, -128220.11, -113106.91, -135091.45, -187500.02, -187500.02, 187500.00, 187500.00, 0.00, 0.00, 0.00
48, -119901.88, -128226.39, -113093.63, -134880.97, -187500.02, -187500.02, 187500.00, 187500.00, 0.00, 0.00, 0.00
49, -119907.67, -128230.03, -113061.91, -134903.88, -187500.02, -187500.02, 187500.00, 187500.00, 0.00, 0.00, 0.00
50, -119890.98, -128220.38, -113091.59, -135196.44, -187500.02, -187500.02, 187500.00, 187500.00, 0.00, 0.00, 0.00
51, -119880.80, -128208.62, -113101.95, -135121.00, -187500.02, -187500.02, 187500.00, 187500.00, 0.00, 0.00, 0.00
52, -119893.73, -128215.16, -113088.70, -134915.45, -187500.02, -187500.02, 187500.00, 187500.00, 0.00, 0.00, 0.00
53, -119904.01, -128226.86, -113059.12, -134863.36, -187500.02, -187500.02, 187500.00, 187500.00, 0.00, 0.00, 0.00
54, -119884.60, -128214.45, -113077.56, -135166.52, -187500.02, -187500.02, 187500.00, 187500.00, 0.00, 0.00, 0.00
55, -119876.47, -128204.73, -113098.08, -135148.95, -187500.02, -187500.02, 187500.00, 187500.00, 0.00, 0.00, 0.00
56, -119886.17, -128208.23, -113093.50, -134954.11, -187500.02, -187500.02, 187500.00, 187500.00, 0.00, -0.01, 0.01
57, -119879.46, -128208.33, -113051.63, -134827.31, -187500.02, -187500.02, 187500.00, 187500.00, 0.00, 0.00, 0.00
58, -119867.46, -128202.83, -113053.13, -135112.64, -187500.02, -187500.02, 187500.00, 187500.00, 0.00, 0.00, 0.00
59, -119854.05, -128185.71, -113081.16, -135157.48, -187500.02, -187500.02, 187500.00, 187500.00, 0.00, 0.00, 0.00
60, -119878.28, -128198.11, -113086.75, -134979.47, -187500.02, -187500.02, 187500.00, 187500.00, 0.00, 0.00, 0.00
61, -119903.72, -128222.84, -113077.65, -134824.53, -187500.02, -187500.02, 187500.00, 187500.00, 0.00, 0.00, 0.00
62, -119889.52, -128222.90, -113070.12, -135065.22, -187500.02, -187500.02, 187500.00, 187500.00, 0.00, 0.00, 0.00
63, -119863.73, -128197.58, -113091.87, -135183.70, -187500.02, -187500.02, 187500.00, 187500.00, 0.00, 0.00, 0.00
64, -119873.34, -128197.89, -113088.02, -135012.16, -187500.02, -187500.02, 187500.00, 187500.00, 0.00, 0.00, 0.00
65, -119888.52, -128207.70, -113070.03, -134819.30, -187500.02, -187500.02, 187500.00, 187500.00, 0.00, 0.00, 0.00
66, -119885.30, -128212.15, -113056.46, -134995.92, -187500.02, -187500.02, 187500.00, 187500.00, 0.00, -0.00, 0.01
67, -119874.62, -128206.00, -113100.52, -135203.22, -187500.02, -187500.02, 187500.00, 187500.00, 0.00, 0.00, 0.00
68, -119877.92, -128205.96, -113103.63, -135057.17, -187500.02, -187500.02, 187500.00, 187500.00, 0.00, 0.00, 0.00
69, -119902.94, -128223.62, -113089.23, -134847.72, -187500.02, -187500.02, 187500.00, 187500.00, 0.00, 0.00, 0.00
70, -119897.84, -128219.99, -113059.81, -134935.02, -187500.02, -187500.02, 187500.00, 187500.00, 0.00, 0.00, 0.00
71, -119865.78, -128194.47, -113084.76, -135188.02, -187500.02, -187500.02, 187500.00, 187500.00, 0.00, 0.00, 0.00
72, -119872.42, -128198.20, -113092.65, -135081.06, -187500.02, -187500.02, 187500.00, 187500.00, 0.00, 0.00, 0.00
73, -119891.45, -128213.98, -113084.65, -134875.56, -187500.02, -187500.02, 187500.00, 187500.00, 0.00, 0.00, 0.00
74, -119896.98, -128222.50, -113055.59, -134880.28, -187500.02, -187500.02, 187500.00, 187500.00, 0.00, 0.00, 0.00
75, -119883.42, -128215.77, -113085.95, -135180.81, -187500.02, -187500.02, 187500.00, 187500.00, 0.00, 0.00, 0.00
76, -119881.27, -128215.44, -113104.54, -135123.33, -187500.02, -187500.02, 187500.00, 187500.00, 0.00, -0.00, 0.01
77, -119897.95, -128220.66, -113096.98, -134926.59, -187500.02, -187500.02, 187500.00, 187500.00, 0.00, 0.00, 0.00
78, -119896.23, -128216.24, -113054.94, -134847.38, -187500.02, -187500.02, 187500.00, 187500.00, 0.00, 0.00, 0.00
79, -119886.08, -128215.97, -113072.13, -135153.42, -187500.02, -187500.02, 187500.00, 187500.00, 0.00, 0.00, 0.00
80, -119865.72, -128195.09, -113085.30, -135141.28, -187500.02, -187500.02, 187500.00, 187500.00, 0.00, 0.00, 0.00
81, -119884.31, -128202.38, -113075.64, -134949.86, -187500.02, -187500.02, 187500.00, 187500.00, 0.00, 0.00, 0.00
82, -119893.77, -128212.77, -113048.21, -134820.52, -187500.02, -187500.02, 187500.00, 187500.00, 0.00, 0.00, 0.00
83, -119875.80, -128205.66, -113048.28, -135099.61, -187500.02, -187500.02, 187500.00, 187500.00, 0.00, 0.00, 0.00
84, -119866.45, -128194.24, -113085.88, -135171.52, -187500.02, -187500.02, 187500.00, 187500.00, 0.00, 0.00, 0.00
85, -119878.52, -128197.60, -113084.38, -134994.98, -187500.02, -187500.02, 187500.00, 187500.00, 0.00, 0.00, 0.00
86, -119875.55, -128193.69, -113048.46, -134807.86, -187500.02, -187500.02, 187500.00, 187500.00, 0.01, 0.00, 0.01
87, -119868.02, -128191.61, -113041.06, -135035.88, -187500.02, -187500.02, 187500.00, 187500.00, 0.00, 0.00, 0.00
88, -119854.12, -128182.13, -113079.02, -135180.44, -187500.02, -187500.02, 187500.00, 187500.00, 0.00, 0.00, 0.00
89, -119877.30, -128195.56, -113086.57, -135024.22, -187500.02, -187500.02, 187500.00, 187500.00, 0.00, 0.00, 0.00
90, -119899.23, -128212.10, -113071.88, -134829.11, -187500.02, -187500.02, 187500.00, 187500.00, 0.00, 0.00, 0.00
91, -119891.22, -128211.44, -113046.83, -134980.33, -187500.02, -187500.02, 187500.00, 187500.00, 0.00, 0.00, 0.00
92, -119866.75, -128194.54, -113074.37, -135190.77, -187500.02, -187500.02, 187500.00, 187500.00, 0.00, 0.00, 0.00
93, -119867.26, -128192.30, -113079.04, -135052.61, -187500.02, -187500.02, 187500.00, 187500.00, 0.00, 0.00, 0.00
94, -119874.37, -128190.78, -113059.43, -134839.67, -187500.02, -187500.02, 187500.00, 187500.00, 0.00, 0.00, 0.00
95, -119879.48, -128199.52, -113039.27, -134911.70, -187500.02, -187500.02, 187500.00, 187500.00, 0.00, 0.00, 0.00
96, -119860.91, -128186.69, -113071.93, -135182.14, -187500.02, -187500.02, 187500.00, 187500.00, 0.01, -0.00, 0.01
97, -119864.89, -128187.34, -113081.07, -135085.77, -187500.02, -187500.02, 187500.00, 187500.00, 0.00, 0.00, 0.00
98, -119875.66, -128192.44, -113070.07, -134880.25, -187500.02, -187500.02, 187500.00, 187500.00, 0.00, 0.00, 0.00
99, -119883.16, -128203.79, -113041.91, -134870.22, -187500.02, -187500.02, 187500.00, 187500.00, 0.00, 0.00, 0.00
100, -119868.06, -128195.90, -113073.25, -135172.23, -187500.02, -187500.02, 187500.00, 187500.00, 0.00, 0.00, 0.00
101, -119862.68, -128185.22, -113098.28, -135121.16, -187500.02, -187500.02, 187500.00, 187500.00, 0.00, 0.00, 0.00
102, -119884.83, -128197.11, -113100.29, -134923.19, -187500.02, -187500.02, 187500.00, 187500.00, 0.00, 0.00, 0.00
103, -119907.02, -128219.86, -113082.23, -134843.27, -187500.02, -187500.02, 187500.00, 187500.00, 0.00, 0.00, 0.00
104, -119895.71, -128215.77, -113100.36, -135146.06, -187500.02, -187500.02, 187500.00, 187500.00, 0.00, 0.00, 0.00
105, -119880.29, -128198.56, -113121.21, -135157.13, -187500.02, -187500.02, 187500.00, 187500.00, 0.00, 0.00, 0.00
106, -119901.81, -128214.01, -113121.70, -134974.72, -187500.02, -187500.02, 187500.00, 187500.00, 0.01, -0.01, 0.01
107, -119916.57, -128224.82, -113097.16, -134836.92, -187500.02, -187500.02, 187500.00, 187500.00, 0.00, 0.00, 0.00
108, -119901.15, -128213.73, -113096.54, -135107.63, -187500.02, -187500.02, 187500.00, 187500.00, 0.00, 0.00, 0.00
109, -119878.95, -128195.45, -113117.08, -135187.34, -187500.02, -187500.02, 187500.00, 187500.00, 0.00, 0.00, 0.00
110, -119891.40, -128199.30, -113112.88, -135014.28, -187500.02, -187500.02, 187500.00, 187500.00, 0.00, 0.00, 0.00
111, -119908.30, -128213.38, -113089.72, -134836.94, -187500.02, -187500.02, 187500.00, 187500.00, 0.00, 0.00, 0.00
112, -119886.88, -128199.50, -113065.83, -135038.86, -187500.02, -187500.02, 187500.00, 187500.00, 0.00, 0.00, 0.00
113, -119865.90, -128182.96, -113097.95, -135198.36, -187500.02, -187500.02, 187500.00, 187500.00, 0.00, 0.00, 0.00
114, -119858.92, -128168.95, -113081.27, -135029.16, -187500.02, -187500.02, 187500.00, 187500.00, 0.00, 0.00, 0.00
115, -119868.20, -128175.49, -113051.66, -134814.30, -187500.02, -187500.02, 187500.00, 187500.00, 0.00, 0.00, 0.00
116, -119871.41, -128185.64, -113037.59, -134954.84, -187500.02, -187500.02, 187500.00, 187500.00, 0.01, -0.01, 0.01
117, -119864.00, -128181.33, -113074.03, -135191.28, -187500.02, -187500.02, 187500.00, 187500.00, 0.00, 0.00, 0.00
118, -119862.09, -128174.80, -113068.69, -135052.67, -187500.02, -187500.02, 187500.00, 187500.00, 0.00, 0.00, 0.00
119, -119879.24, -128185.02, -113056.17, -134842.58, -187500.02, -187500.02, 187500.00, 187500.00, 0.00, 0.00, 0.00
120, -119894.80, -128201.64, -113043.02, -134905.27, -187500.02, -187500.02, 187500.00, 187500.00, 0.00, 0.00, 0.00
121, -119879.69, -128191.70, -113073.65, -135188.08, -187500.02, -187500.02, 187500.00, 187500.00, 0.00, 0.00, 0.00
122, -119880.36, -128184.45, -113079.69, -135094.81, -187500.02, -187500.02, 187500.00, 187500.00, 0.00, 0.00, 0.00
123, -119896.77, -128194.42, -113072.53, -134886.94, -187500.02, -187500.02, 187500.00, 187500.00, 0.00, 0.00, 0.00
124, -119910.06, -128210.88, -113050.60, -134866.48, -187500.02, -187500.02, 187500.00, 187500.00, 0.00, 0.00, 0.00
125, -119892.61, -128200.08, -113070.66, -135172.55, -187500.02, -187500.02, 187500.00, 187500.00, 0.00, 0.00, 0.00
126, -119882.23, -128196.05, -113085.27, -135134.00, -187500.02, -187500.02, 187500.00, 187500.00, 0.00, 0.00, 0.00
127, -119889.77, -128200.80, -113067.57, -134931.55, -187500.02, -187500.02, 187500.00, 187500.00, 0.01, -0.00, 0.01
128, -119897.77, -128206.79, -113027.60, -134829.25, -187500.02, -187500.02, 187500.00, 187500.00, 0.00, 0.00, 0.00
129, -119882.03, -128198.13, -113035.98, -135125.66, -187500.02, -187500.02, 187500.00, 187500.00, 0.00, 0.00, 0.00
130, -119875.51, -128189.20, -113060.64, -135155.11, -187500.02, -187500.02, 187500.00, 187500.00, 0.00, 0.00, 0.00
131, -119889.03, -128195.99, -113053.87, -134970.17, -187500.02, -187500.02, 187500.00, 187500.00, 0.00, 0.00, 0.00
132, -119903.91, -128208.35, -113029.41, -134819.77, -187500.02, -187500.02, 187500.00, 187500.00, 0.00, 0.00, 0.00
133, -119893.16, -128207.91, -113028.66, -135080.59, -187500.02, -187500.02, 187500.00, 187500.00, 0.00, 0.00, 0.00
134, -119866.08, -128182.49, -113050.52, -135173.09, -187500.02, -187500.02, 187500.00, 187500.00, 0.00, 0.00, 0.00
135, -119867.44, -128175.20, -113037.10, -134992.86, -187500.02, -187500.02, 187500.00, 187500.00, 0.00, 0.00, 0.00
136, -119884.34, -128189.89, -113020.63, -134809.48, -187500.02, -187500.02, 187500.00, 187500.00, 0.00, 0.00, 0.00
137, -119877.74, -128192.97, -113011.02, -135009.41, -187500.02, -187500.02, 187500.00, 187500.00, 0.00, -0.00, 0.01
138, -119858.52, -128174.58, -113036.75, -135179.48, -187500.02, -187500.02, 187500.00, 187500.00, 0.00, 0.00, 0.00
139, -119867.80, -128176.74, -113040.93, -135027.16, -187500.02, -187500.02, 187500.00, 187500.00, 0.00, 0.00, 0.00
140, -119883.38, -128190.63, -113031.54, -134823.28, -187500.02, -187500.02, 187500.00, 187500.00, 0.00, 0.00, 0.00
141, -119882.91, -128193.20, -113014.02, -134943.09, -187500.02, -187500.02, 187500.00, 187500.00, 0.00, 0.00, 0.00
142, -119859.02, -128175.56, -113045.76, -135183.33, -187500.02, -187500.02, 187500.00, 187500.00, 0.00, 0.00, 0.00
143, -119867.73, -128176.97, -113060.91, -135066.61, -187500.02, -187500.02, 187500.00, 187500.00, 0.00, 0.00, 0.00
144, -119874.30, -128177.03, -113044.55, -134853.69, -187500.02, -187500.02, 187500.00, 187500.00, 0.00, 0.00, 0.00
145, -119864.09, -128174.42, -113006.41, -134875.09, -187500.02, -187500.02, 187500.00, 187500.00, 0.00, 0.00, 0.00
146, -119844.71, -128160.56, -113030.33, -135160.95, -187500.02, -187500.02, 187500.00, 187500.00, 0.00, 0.00, 0.00
147, -119842.25, -128156.13, -113045.93, -135081.28, -187500.02, -187500.02, 187500.00, 187500.00, 0.00, -0.00, 0.01
148, -119868.73, -128175.25, -113046.56, -134879.97, -187500.02, -187500.02, 187500.00, 187500.00, 0.00, 0.00, 0.00
149, -119879.98, -128192.01, -113013.92, -134837.81, -187500.02, -187500.02, 187500.00, 187500.00, 0.00, 0.00, 0.00
150, -119860.48, -128178.33, -113035.98, -135146.72, -187500.02, -187500.02, 187500.00, 187500.00, 0.00, 0.00, 0.00
151, -119851.99, -128167.80, -113054.13, -135121.50, -187500.02, -187500.02, 187500.00, 187500.00, 0.00, 0.00, 0.00
152, -119870.39, -128181.02, -113047.27, -134926.19, -187500.02, -187500.02, 187500.00, 187500.00, 0.00, 0.00, 0.00
153, -119882.77, -128194.05, -113018.38, -134813.69, -187500.02, -187500.02, 187500.00, 187500.00, 0.00, 0.00, 0.00
154, -119874.91, -128188.34, -113032.52, -135112.52, -187500.02, -187500.02, 187500.00, 187500.00, 0.00, 0.00, 0.00
155, -119854.61, -128170.24, -113053.66, -135152.25, -187500.02, -187500.02, 187500.00, 187500.00, 0.00, 0.00, 0.00
156, -119871.09, -128180.50, -113056.57, -134971.09, -187500.02, -187500.02, 187500.00, 187500.00, 0.00, 0.00, 0.00
157, -119881.09, -128190.85, -113030.33, -134806.45, -187500.02, -187500.02, 187500.00, 187500.00, 0.01, -0.01, 0.01
158, -119872.49, -128184.26, -113023.11, -135052.61, -187500.02, -187500.02, 187500.00, 187500.00, 0.00, 0.00, 0.00
159, -119860.98, -128173.64, -113055.95, -135172.44, -187500.02, -187500.02, 187500.00, 187500.00, 0.00, 0.00, 0.00
160, -119863.98, -128174.33, -113051.90, -135004.00, -187500.02, -187500.02, 187500.00, 187500.00, 0.00, 0.00, 0.00
161, -119876.11, -128178.94, -113025.86, -134805.56, -187500.02, -187500.02, 187500.00, 187500.00, 0.00, 0.00, 0.00
162, -119876.54, -128186.63, -113019.80, -134994.88, -187500.02, -187500.02, 187500.00, 187500.00, 0.00, 0.00, 0.00
163, -119861.98, -128178.40, -113060.71, -135195.42, -187500.02, -187500.02, 187500.00, 187500.00, 0.00, 0.00, 0.00
164, -119867.20, -128173.33, -113052.41, -135043.56, -187500.02, -187500.02, 187500.00, 187500.00, 0.00, 0.00, 0.00
165, -119885.34, -128189.33, -113039.72, -134838.44, -187500.02, -187500.02, 187500.00, 187500.00, 0.00, 0.00, 0.00
166, -119886.17, -128198.16, -113021.93, -134944.05, -187500.02, -187500.02, 187500.00, 187500.00, 0.00, 0.00, 0.00
167, -119868.67, -128187.41, -113058.83, -135200.67, -187500.02, -187500.02, 187500.00, 187500.00, 0.01, -0.00, 0.01
168, -119864.22, -128178.29, -113060.22, -135076.45, -187500.02, -187500.02, 187500.00, 187500.00, 0.00, 0.00, 0.00
169, -119891.45, -128195.25, -113055.43, -134868.41, -187500.02, -187500.02, 187500.00, 187500.00, 0.00, 0.00, 0.00
170, -119898.48, -128203.74, -113031.00, -134887.00, -187500.02, -187500.02, 187500.00, 187500.00, 0.00, 0.00, 0.00
171, -119874.34, -128188.95, -113056.21, -135180.81, -187500.02, -187500.02, 187500.00, 187500.00, 0.00, 0.00, 0.00
172, -119865.83, -128177.44, -113068.13, -135104.36, -187500.02, -187500.02, 187500.00, 187500.00, 0.00, 0.00, 0.00
173, -119876.58, -128182.82, -113059.12, -134897.75, -187500.02, -187500.02, 187500.00, 187500.00, 0.00, 0.00, 0.00
174, -119871.51, -128184.59, -113022.40, -134826.28, -187500.02, -187500.02, 187500.00, 187500.00, 0.00, 0.00, 0.00
175, -119844.62, -128165.55, -113030.89, -135125.00, -187500.02, -187500.02, 187500.00, 187500.00, 0.00, 0.00, 0.00
176, -119834.88, -128152.11, -113051.56, -135107.84, -187500.02, -187500.02, 187500.00, 187500.00, 0.00, 0.00, 0.00
177, -119848.64, -128159.42, -113046.96, -134912.20, -187500.02, -187500.02, 187500.00, 187500.00, 0.01, -0.00, 0.01
178, -119871.69, -128178.22, -113029.05, -134795.41, -187500.02, -187500.02, 187500.00, 187500.00, 0.00, 0.00, 0.00
179, -119857.67, -128167.96, -113038.11, -135082.27, -187500.02, -187500.02, 187500.00, 187500.00, 0.00, 0.00, 0.00
180, -119853.23, -128163.52, -113077.78, -135152.95, -187500.02, -187500.02, 187500.00, 187500.00, 0.00, 0.00, 0.00
181, -119858.92, -128164.95, -113073.65, -134969.78, -187500.02, -187500.02, 187500.00, 187500.00, 0.00, 0.00, 0.00
182, -119873.45, -128176.05, -113053.58, -134796.34, -187500.02, -187500.02, 187500.00, 187500.00, 0.00, 0.00, 0.00
183, -119868.22, -128177.15, -113051.74, -135035.88, -187500.02, -187500.02, 187500.00, 187500.00, 0.00, 0.00, 0.00
184, -119851.99, -128165.28, -113086.37, -135173.98, -187500.02, -187500.02, 187500.00, 187500.00, 0.00, 0.00, 0.00
185, -119860.48, -128166.48, -113084.42, -135006.30, -187500.02, -187500.02, 187500.00, 187500.00, 0.00, 0.00, 0.00
186, -119873.36, -128172.63, -113059.75, -134800.14, -187500.02, -187500.02, 187500.00, 187500.00, 0.00, 0.00, 0.00
187, -119874.86, -128178.69, -113046.83, -134968.45, -187500.02, -187500.02, 187500.00, 187500.00, 0.01, 0.00, 0.01
188, -119857.58, -128169.97, -113085.80, -135180.81, -187500.02, -187500.02, 187500.00, 187500.00, 0.00, 0.00, 0.00
189, -119860.63, -128165.88, -113088.06, -135039.25, -187500.02, -187500.02, 187500.00, 187500.00, 0.00, 0.00, 0.00
190, -119880.76, -128180.30, -113077.52, -134834.17, -187500.02, -187500.02, 187500.00, 187500.00, 0.00, 0.00, 0.00
191, -119895.63, -128197.29, -113060.87, -134922.70, -187500.02, -187500.02, 187500.00, 187500.00, 0.00, 0.00, 0.00
192, -119873.45, -128180.63, -113084.22, -135187.13, -187500.02, -187500.02, 187500.00, 187500.00, 0.00, 0.00, 0.00
193, -119875.11, -128176.23, -113093.59, -135079.39, -187500.02, -187500.02, 187500.00, 187500.00, 0.00, 0.00, 0.00
194, -119887.06, -128182.27, -113080.40, -134868.25, -187500.02, -187500.02, 187500.00, 187500.00, 0.00, 0.00, 0.00
195, -119893.48, -128195.68, -113048.84, -134868.67, -187500.02, -187500.02, 187500.00, 187500.00, 0.00, 0.00, 0.00
196, -119883.78, -128194.78, -113081.85, -135179.45, -187500.02, -187500.02, 187500.00, 187500.00, 0.00, 0.00, 0.00
197, -119878.81, -128190.11, -113095.95, -135123.47, -187500.02, -187500.02, 187500.00, 187500.00, 0.01, -0.00, 0.01
198, -119889.70, -128192.88, -113079.69, -134915.66, -187500.02, -187500.02, 187500.00, 187500.00, 0.00, 0.00, 0.00
199, -119898.27, -128194.54, -113046.83, -134839.70, -187500.02, -187500.02, 187500.00, 187500.00, 0.00, 0.00, 0.00
200, -119877.68, -128183.80, -113053.87, -135144.34, -187500.02, -187500.02, 187500.00, 187500.00, 0.00, 0.00, 0.00
201, -119862.84, -128171.42, -113070.45, -135141.06, -187500.02, -187500.02, 187500.00, 187500.00, 0.00, 0.00, 0.00
202, -119877.92, -128178.24, -113064.71, -134946.66, -187500.02, -187500.02, 187500.00, 187500.00, 0.00, 0.00, 0.00
203, -119883.64, -128181.77, -113020.63, -134797.55, -187500.02, -187500.02, 187500.00, 187500.00, 0.00, 0.00, 0.00
204, -119863.73, -128168.20, -113016.30, -135069.22, -187500.02, -187500.02, 187500.00, 187500.00, 0.00, 0.00, 0.00
205, -119857.72, -128160.63, -113048.64, -135148.28, -187500.02, -187500.02, 187500.00, 187500.00, 0.00, 0.00, 0.00
206, -119866.39, -128164.41, -113038.11, -134968.55, -187500.02, -187500.02, 187500.00, 187500.00, 0.00, 0.00, 0.00
207, -119862.73, -128160.07, -113001.01, -134777.53, -187500.02, -187500.02, 187500.00, 187500.00, 0.01, -0.00, 0.01
208, -119846.67, -128155.24, -112983.80, -134991.77, -187500.02, -187500.02, 187500.00, 187500.00, 0.00, 0.00, 0.00
209, -119827.45, -128140.34, -113017.84, -135147.52, -187500.02, -187500.02, 187500.00, 187500.00, 0.00, 0.00, 0.00
210, -119843.61, -128150.26, -113025.41, -134993.52, -187500.02, -187500.02, 187500.00, 187500.00, 0.00, 0.00, 0.00
211, -119864.29, -128167.29, -113011.18, -134794.83, -187500.02, -187500.02, 187500.00, 187500.00, 0.00, 0.00, 0.00
212, -119868.53, -128177.51, -112998.81, -134950.02, -187500.02, -187500.02, 187500.00, 187500.00, 0.00, 0.00, 0.00
213, -119844.10, -128158.22, -113030.35, -135172.94, -187500.02, -187500.02, 187500.00, 187500.00, 0.00, 0.00, 0.00
214, -119845.45, -128154.77, -113034.13, -135036.34, -187500.02, -187500.02, 187500.00, 187500.00, 0.00, 0.00, 0.00
215, -119855.33, -128160.36, -113021.77, -134824.94, -187500.02, -187500.02, 187500.00, 187500.00, 0.00, 0.00, 0.00
216, -119865.34, -128172.92, -112999.76, -134889.58, -187500.02, -187500.02, 187500.00, 187500.00, 0.00, 0.00, 0.00
217, -119837.33, -128152.38, -113031.83, -135163.77, -187500.02, -187500.02, 187500.00, 187500.00, 0.01, -0.01, 0.01
218, -119846.00, -128153.86, -113044.66, -135067.34, -187500.02, -187500.02, 187500.00, 187500.00, 0.00, 0.00, 0.00
219, -119856.73, -128156.56, -113031.13, -134856.42, -187500.02, -187500.02, 187500.00, 187500.00, 0.00, 0.00, 0.00
220, -119866.63, -128165.50, -113007.58, -134840.30, -187500.02, -187500.02, 187500.00, 187500.00, 0.00, 0.00, 0.00
221, -119849.78, -128156.59, -113037.06, -135147.97, -187500.02, -187500.02, 187500.00, 187500.00, 0.00, 0.00, 0.00
222, -119855.57, -128158.23, -113055.63, -135101.42, -187500.02, -187500.02, 187500.00, 187500.00, 0.00, 0.00, 0.00
223, -119871.64, -128165.39, -113050.74, -134901.45, -187500.02, -187500.02, 187500.00, 187500.00, 0.00, 0.00, 0.00
224, -119869.80, -128165.84, -113017.28, -134805.05, -187500.02, -187500.02, 187500.00, 187500.00, 0.00, 0.00, 0.00
225, -119853.91, -128156.47, -113030.11, -135105.25, -187500.02, -187500.02, 187500.00, 187500.00, 0.00, 0.00, 0.00
226, -119843.23, -128147.93, -113057.80, -135127.09, -187500.02, -187500.02, 187500.00, 187500.00, 0.00, 0.00, 0.00
227, -119854.20, -128149.74, -113048.15, -134938.48, -187500.02, -187500.02, 187500.00, 187500.00, 0.00, -0.01, 0.01
228, -119864.65, -128154.21, -113016.63, -134783.70, -187500.02, -187500.02, 187500.00, 187500.00, 0.00, 0.00, 0.00
229, -119847.68, -128146.99, -113013.52, -135048.03, -187500.02, -187500.02, 187500.00, 187500.00, 0.00, 0.00, 0.00
230, -119833.45, -128134.27, -113050.25, -135147.61, -187500.02, -187500.02, 187500.00, 187500.00, 0.00, 0.00, 0.00
231, -119848.73, -128145.99, -113046.34, -134976.50, -187500.02, -187500.02, 187500.00, 187500.00, 0.00, 0.00, 0.00
232, -119867.08, -128162.08, -113024.72, -134793.23, -187500.02, -187500.02, 187500.00, 187500.00, 0.00, 0.00, 0.00
233, -119862.32, -128161.99, -113015.98, -135004.08, -187500.02, -187500.02, 187500.00, 187500.00, 0.00, 0.00, 0.00
234, -119836.75, -128141.97, -113045.04, -135169.36, -187500.02, -187500.02, 187500.00, 187500.00, 0.00, 0.00, 0.00
235, -119836.05, -128136.66, -113036.81, -135006.67, -187500.02, -187500.02, 187500.00, 187500.00, 0.00, 0.00, 0.00
236, -119831.84, -128130.41, -113002.70, -134785.75, -187500.02, -187500.02, 187500.00, 187500.00, 0.00, 0.00, 0.00
237, -119832.64, -128135.80, -112980.51, -134913.66, -187500.02, -187500.02, 187500.00, 187500.00, 0.00, 0.00, 0.00
238, -119813.03, -128119.21, -113006.57, -135147.94, -187500.02, -187500.02, 187500.00, 187500.00, 0.00, -0.00, 0.01
239, -119817.80, -128119.16, -113016.36, -135025.52, -187500.02, -187500.02, 187500.00, 187500.00, 0.00, 0.00, 0.00
240, -119832.59, -128130.23, -113001.84, -134816.27, -187500.02, -187500.02, 187500.00, 187500.00, 0.00, 0.00, 0.00
241, -119841.35, -128145.59, -112980.82, -134868.20, -187500.02, -187500.02, 187500.00, 187500.00, 0.00, 0.00, 0.00
242, -119826.20, -128133.16, -113009.45, -135158.45, -187500.02, -187500.02, 187500.00, 187500.00, 0.00, 0.00, 0.00
243, -119826.54, -128131.52, -113019.45, -135072.23, -187500.02, -187500.02, 187500.00, 187500.00, 0.00, 0.00, 0.00
244, -119840.66, -128138.23, -113004.13, -134863.69, -187500.02, -187500.02, 187500.00, 187500.00, 0.00, 0.00, 0.00
245, -119854.05, -128152.59, -112980.51, -134832.20, -187500.02, -187500.02, 187500.00, 187500.00, 0.00, 0.00, 0.00
246, -119836.19, -128143.26, -113001.68, -135142.47, -187500.02, -187500.02, 187500.00, 187500.00, 0.00, 0.00, 0.00
247, -119830.34, -128132.47, -113020.90, -135109.30, -187500.02, -187500.02, 187500.00, 187500.00, 0.00, 0.00, 0.00
248, -119848.10, -128142.48, -113019.47, -134915.13, -187500.02, -187500.02, 187500.00, 187500.00, 0.00, -0.01, 0.01
249, -119842.43, -128137.43, -112976.40, -134796.86, -187500.02, -187500.02, 187500.00, 187500.00, 0.00, 0.00, 0.00
250, -119825.22, -128132.29, -112991.48, -135094.14, -187500.02, -187500.02, 187500.00, 187500.00, 0.00, 0.00, 0.00
251, -119824.73, -128130.50, -113027.05, -135133.41, -187500.02, -187500.02, 187500.00, 187500.00, 0.00, 0.00, 0.00
252, -119844.46, -128139.06, -113033.10, -134955.16, -187500.02, -187500.02, 187500.00, 187500.00, 0.00, 0.00, 0.00
253, -119854.68, -128147.22, -113011.55, -134796.75, -187500.02, -187500.02, 187500.00, 187500.00, 0.00, 0.00, 0.00
254, -119842.72, -128143.66, -113012.02, -135052.13, -187500.02, -187500.02, 187500.00, 187500.00, 0.00, 0.00, 0.00
255, -119830.11, -128133.16, -113046.54, -135165.17, -187500.02, -187500.02, 187500.00, 187500.00, 0.00, 0.00, 0.00
0, -119842.65, -128137.25, -113042.80, -134993.48, -187500.02, -187500.02, 187500.00, 187500.00, 0.00, 0.00, 0.00
1, -119859.46, -128149.68, -113027.45, -134804.23, -187500.02, -187500.02, 187500.00, 187500.00, 0.00, 0.00, 0.00
2, -119858.79, -128151.60, -113019.02, -134997.80, -187500.02, -187500.02, 187500.00, 187500.00, 0.00, -0.00, 0.01
3, -119838.67, -128138.92, -113054.36, -135185.56, -187500.02, -187500.02, 187500.00, 187500.00, 0.00, 0.00, 0.00
4, -119838.59, -128137.90, -113059.50, -135035.06, -187500.02, -187500.02, 187500.00, 187500.00, 0.00, 0.00, 0.00
5, -119847.16, -128140.42, -113035.59, -134820.70, -187500.02, -187500.02, 187500.00, 187500.00, 0.00, 0.00, 0.00
6, -119843.95, -128141.23, -113010.13, -134927.31, -187500.02, -187500.02, 187500.00, 187500.00, 0.00, 0.00, 0.00
7, -119823.02, -128121.85, -113041.28, -135179.09, -187500.02, -187500.02, 187500.00, 187500.00, 0.00, 0.00, 0.00
8, -119820.27, -128117.55, -113045.09, -135056.75, -187500.02, -187500.02, 187500.00, 187500.00, 0.00, 0.00, 0.00
9, -119836.57, -128125.11, -113033.88, -134843.36, -187500.02, -187500.02, 187500.00, 187500.00, 0.00, 0.00, 0.00
10, -119829.87, -128119.44, -112995.20, -134857.38, -187500.02, -187500.02, 187500.00, 187500.00, 0.00, 0.00, 0.00
11, -119809.77, -128108.21, -113022.28, -135150.25, -187500.02, -187500.02, 187500.00, 187500.00, 0.00, 0.00, 0.00
